SpectraSuite Data File
++++++++++++++++++++++++++++++++++++
Date: Fri Jun 02 14:44:34 CEST 2017
User: INFO_000
Dark Spectrum Present: No
Reference Spectrum Present: No
Number of Sampled Component Spectra: 1
Spectrometers: USB4H00879
Integration Time (usec): 80000 (USB4H00879)
Spectra Averaged: 1 (USB4H00879)
Boxcar Smoothing: 0 (USB4H00879)
Correct for Electrical Dark: No (USB4H00879)
Strobe/Lamp Enabled: No (USB4H00879)
Correct for Detector Non-linearity: No (USB4H00879)
Correct for Stray Light: No (USB4H00879)
Number of Pixels in Processed Spectrum: 3648
>>>>>Begin Processed Spectral Data<<<<<
345.13	1265.64
345.34	1265.64
345.56	1265.64
345.78	1245.16
345.99	1224.69
346.21	1726.44
346.42	1765.35
346.64	1658.85
346.86	1738.73
347.07	1683.43
347.29	1703.91
347.50	1603.56
347.72	1658.85
347.94	1740.77
348.15	1581.03
348.37	1626.09
348.59	1691.62
348.80	1589.22
349.02	1765.35
349.23	1837.03
349.45	1814.50
349.67	1871.84
349.88	1832.93
350.10	1970.15
350.31	1738.73
350.53	1769.44
350.75	1929.19
350.96	1818.60
351.18	1830.88
351.39	1908.71
351.61	1753.06
351.82	1902.56
352.04	1898.47
352.26	1880.04
352.47	1867.75
352.69	1886.18
352.90	1724.39
353.12	1837.03
353.34	1789.92
353.55	1935.33
353.77	1927.14
353.98	1828.84
354.20	1824.74
354.41	1839.08
354.63	1949.67
354.85	1953.76
355.06	1880.04
355.28	1787.88
355.49	1894.37
355.71	1880.04
355.92	1867.75
356.14	1916.90
356.35	1949.67
356.57	1822.69
356.79	1951.71
357.00	1912.80
357.22	1953.76
357.43	1773.54
357.65	1945.57
357.86	1820.64
358.08	1894.37
358.29	1871.84
358.51	1929.19
358.72	1953.76
358.94	1912.80
359.16	1961.95
359.37	1877.99
359.59	1982.43
359.80	1890.28
360.02	1957.86
360.23	1951.71
360.45	2033.63
360.66	1904.61
360.88	1839.08
361.09	1927.14
361.31	2052.06
361.52	1961.95
361.74	2007.01
361.95	2109.41
362.17	1886.18
362.38	2088.93
362.60	2082.78
362.81	2029.54
363.03	1920.99
363.24	2041.82
363.46	2050.02
363.67	2019.30
363.89	1984.48
364.10	2009.06
364.32	1959.91
364.53	2039.78
364.75	1847.27
364.96	2023.39
365.18	2011.11
365.39	2033.63
365.61	1970.15
365.82	2138.08
366.04	2013.15
366.25	1931.23
366.47	2043.87
366.68	2062.30
366.90	2039.78
367.11	2140.13
367.33	2023.39
367.54	2131.94
367.76	1996.77
367.97	2060.26
368.19	2027.49
368.40	2109.41
368.62	2047.97
368.83	1994.72
369.05	2039.78
369.26	1990.63
369.48	2007.01
369.69	2023.39
369.91	2039.78
370.12	2043.87
370.33	2166.75
370.55	1892.32
370.76	2093.02
370.98	2144.22
371.19	2070.50
371.41	2058.21
371.62	2029.54
371.84	2000.87
372.05	2164.70
372.27	2086.88
372.48	2045.92
372.69	2125.79
372.91	2088.93
373.12	2170.85
373.34	2050.02
373.55	2148.32
373.77	2162.66
373.98	2136.03
374.20	2232.29
374.41	2242.53
374.62	2166.75
374.84	2246.62
375.05	2220.00
375.27	2179.04
375.48	2295.77
375.70	2195.42
375.91	2183.13
376.12	2277.34
376.34	2107.36
376.55	2224.09
376.77	2260.96
376.98	2119.65
377.19	2109.41
377.41	2090.98
377.62	2230.24
377.84	2252.77
378.05	2234.33
378.27	2117.60
378.48	2353.12
378.69	2412.51
378.91	2250.72
379.12	2291.68
379.34	2164.70
379.55	2353.12
379.76	2224.09
379.98	2228.19
380.19	2322.40
380.41	2322.40
380.62	2207.71
380.83	2211.81
381.05	2179.04
381.26	2373.60
381.47	2256.86
381.69	2246.62
381.90	2357.21
382.12	2301.92
382.33	2330.59
382.54	2252.77
382.76	2314.20
382.97	2287.58
383.19	2277.34
383.40	2330.59
383.61	2328.54
383.83	2265.05
384.04	2271.20
384.25	2326.49
384.47	2392.03
384.68	2453.47
384.89	2336.73
385.11	2310.11
385.32	2306.01
385.54	2334.68
385.75	2351.07
385.96	2324.44
386.18	2373.60
386.39	2414.56
386.60	2363.36
386.82	2463.71
387.03	2396.12
387.24	2469.85
387.46	2394.08
387.67	2494.43
387.88	2453.47
388.10	2521.05
388.31	2426.84
388.52	2629.59
388.74	2566.10
388.95	2523.10
389.16	2467.80
389.38	2543.58
389.59	2613.21
389.80	2662.36
390.02	2519.00
390.23	2668.50
390.44	2633.69
390.66	2564.06
390.87	2539.48
391.08	2625.50
391.30	2688.98
391.51	2637.78
391.72	2738.13
391.94	2629.59
392.15	2686.94
392.36	2562.01
392.58	2662.36
392.79	2678.74
393.00	2729.94
393.22	2777.05
393.43	2760.66
393.64	2863.06
393.85	2764.76
394.07	2723.80
394.28	2721.75
394.49	2764.76
394.71	2838.48
394.92	2842.58
395.13	2750.42
395.35	2740.18
395.56	2772.95
395.77	2803.67
395.98	2850.77
396.20	2936.79
396.41	2867.16
396.62	2877.40
396.84	2840.53
397.05	2820.05
397.26	2955.22
397.47	2924.50
397.69	2891.73
397.90	3028.95
398.11	2990.03
398.32	2854.87
398.54	2871.25
398.75	2924.50
398.96	2998.23
399.18	3123.15
399.39	3026.90
399.60	3063.76
399.81	3018.71
400.03	2953.17
400.24	3348.43
400.45	2889.68
400.66	3061.71
400.88	2990.03
401.09	3123.15
401.30	3092.43
401.51	3069.91
401.73	3125.20
401.94	3082.19
402.15	3215.31
402.36	3174.35
402.58	3137.49
402.79	3182.54
403.00	3194.83
403.21	3157.97
403.43	3176.40
403.64	3139.54
403.85	3184.59
404.06	3293.13
404.27	3137.49
404.49	3254.22
404.70	3149.78
404.91	3192.78
405.12	3237.84
405.34	3215.31
405.55	3362.76
405.76	3053.52
405.97	3272.65
406.19	3370.96
406.40	3276.75
406.61	3348.43
406.82	3342.28
407.03	3313.61
407.25	3215.31
407.46	3481.55
407.67	3258.32
407.88	3526.60
408.09	3366.86
408.31	3416.01
408.52	3350.48
408.73	3395.53
408.94	3303.37
409.15	3387.34
409.37	3536.84
409.58	3502.03
409.79	3559.37
410.00	3581.90
410.21	3411.92
410.43	3465.16
410.64	3424.20
410.85	3622.86
411.06	3495.88
411.27	3538.89
411.48	3579.85
411.70	3594.19
411.91	3540.94
412.12	3624.90
412.33	3510.22
412.54	3522.51
412.76	3684.30
412.97	3674.06
413.18	3641.29
413.39	3567.56
413.60	3721.16
413.81	3755.97
414.03	3631.05
414.24	3717.06
414.45	3846.09
414.66	3639.24
414.87	3813.32
415.08	3715.02
415.30	3704.78
415.51	3850.18
415.72	3837.89
415.93	3821.51
416.14	3819.46
416.35	3829.70
416.56	3798.98
416.78	3874.76
416.99	3891.14
417.20	3897.28
417.41	3870.66
417.62	3872.71
417.83	3991.49
418.04	3860.42
418.26	3997.64
418.47	4005.83
418.68	4042.69
418.89	4050.88
419.10	4161.47
419.31	4001.73
419.52	4114.37
419.73	3971.01
419.95	4130.75
420.16	3940.29
420.37	4057.03
420.58	4016.07
420.79	4032.45
421.00	4147.14
421.21	4177.86
421.42	4173.76
421.63	4100.03
421.85	4130.75
422.06	4243.39
422.27	4192.19
422.48	4179.90
422.69	4335.55
422.90	4263.87
423.11	4243.39
423.32	4337.60
423.53	4390.84
423.75	4319.17
423.96	4378.56
424.17	4347.84
424.38	4591.55
424.59	4489.15
424.80	4612.03
425.01	4390.84
425.22	4491.20
425.43	4437.95
425.64	4681.66
425.85	4655.03
426.06	4501.44
426.28	4571.07
426.49	4505.53
426.70	4523.96
426.91	4464.57
427.12	4685.75
427.33	4644.79
427.54	4562.87
427.75	4730.81
427.96	4894.65
428.17	4734.90
428.38	4898.74
428.59	4829.11
428.80	4806.58
429.01	4872.12
429.23	4863.93
429.44	5089.20
429.65	5052.34
429.86	4964.28
430.07	4913.08
430.28	4876.21
430.49	5005.24
430.70	5062.58
430.91	5089.20
431.12	5081.01
431.33	5062.58
431.54	5195.70
431.75	5171.12
431.96	5189.55
432.17	5214.13
432.38	5115.83
432.59	5367.73
432.80	5318.57
433.01	5357.49
433.22	5480.36
433.43	5259.18
433.64	5246.90
433.85	5230.51
434.06	5466.03
434.27	5384.11
434.49	5433.26
434.70	5431.21
434.91	5490.60
435.12	5541.80
435.33	5527.47
435.54	5480.36
435.75	5347.25
435.96	5480.36
436.17	5498.80
436.38	5609.39
436.59	5568.43
436.80	5554.09
437.01	5742.50
437.22	5767.08
437.43	5644.20
437.64	5568.43
437.85	5754.79
438.06	5717.93
438.27	5734.31
438.48	5672.87
438.69	5894.05
438.90	5826.47
439.11	5738.41
439.32	5959.59
439.53	5869.48
439.74	5865.38
439.95	5953.45
440.16	5949.35
440.37	5947.30
440.57	5834.66
440.78	6086.56
440.99	5939.11
441.20	5955.49
441.41	5941.16
441.62	5877.67
441.83	5922.73
442.04	6213.54
442.25	6154.15
442.46	6066.08
442.67	6211.49
442.88	6561.69
443.09	6051.75
443.30	6236.06
443.51	6287.26
443.72	6356.90
443.93	6250.40
444.14	6670.23
444.35	6170.53
444.56	6467.49
444.77	6354.85
444.98	6358.94
445.19	6487.96
445.40	6481.82
445.61	6344.61
445.81	6588.32
446.02	6553.50
446.23	6533.02
446.44	6408.09
446.65	6633.37
446.86	6580.12
447.07	6705.05
447.28	6700.95
447.49	6625.18
447.70	6807.45
447.91	6848.41
448.12	6723.48
448.33	6913.94
448.54	6952.85
448.74	6733.72
448.95	6784.92
449.16	6782.87
449.37	7020.44
449.58	6836.12
449.79	7163.79
450.00	6858.65
450.21	7131.03
450.42	7020.44
450.63	7288.72
450.84	7008.15
451.05	7114.64
451.25	7131.03
451.46	7075.73
451.67	7090.07
451.88	7288.72
452.09	7225.23
452.30	7214.99
452.51	7143.32
452.72	7382.93
452.93	7651.21
453.13	7126.93
453.34	7227.28
453.55	7454.61
453.76	7505.81
453.97	7741.32
454.18	7434.13
454.39	7626.64
454.60	7700.36
454.81	7524.24
455.01	7876.49
455.22	7497.61
455.43	7600.01
455.64	7995.27
455.85	7882.63
456.06	7894.92
456.27	7774.09
456.48	8011.65
456.68	7827.34
456.89	8023.94
457.10	8079.24
457.31	8181.64
457.52	7989.13
457.73	8128.39
457.94	8372.10
458.14	7997.32
458.35	8537.98
458.56	8226.69
458.77	8193.92
458.98	8281.99
459.19	8433.54
459.39	8374.14
459.60	8427.39
459.81	8451.97
460.02	8591.23
460.23	8456.06
460.44	8806.27
460.65	8656.76
460.85	8773.50
461.06	8726.39
461.27	8587.13
461.48	8857.46
461.69	9154.42
461.89	8685.44
462.10	9019.25
462.31	8871.80
462.52	8943.48
462.73	9133.94
462.94	9340.79
463.14	9269.11
463.35	8996.73
463.56	9604.97
463.77	9518.96
463.98	9224.05
464.18	9453.42
464.39	9369.46
464.60	9838.44
464.81	9668.46
465.02	9621.36
465.23	9846.63
465.43	9944.94
465.64	10002.28
465.85	9736.04
466.06	9830.25
466.27	10184.55
466.47	9852.78
466.68	10063.72
466.89	10100.58
467.10	10334.05
467.30	10121.06
467.51	10252.13
467.72	10276.71
467.93	10176.36
468.14	10389.35
468.34	10565.47
468.55	10477.41
468.76	10581.85
468.97	10557.28
469.17	10835.80
469.38	10786.65
469.59	11079.51
469.80	10684.25
470.01	10911.58
470.21	11001.69
470.42	11253.59
470.63	11204.44
470.84	11106.13
471.04	11407.19
471.25	11444.05
471.46	11214.68
471.67	11661.13
471.87	11423.57
472.08	11634.51
472.29	11808.59
472.50	11407.19
472.70	11835.21
472.91	11904.84
473.12	11992.90
473.33	12115.78
473.53	12140.36
473.74	12013.38
473.95	12367.68
474.16	12416.83
474.36	12468.03
474.57	12508.99
474.78	12670.78
474.99	12511.04
475.19	12476.23
475.40	12939.07
475.61	13041.46
475.81	13223.73
476.02	13111.10
476.23	13236.02
476.44	13315.89
476.64	13461.30
476.85	13559.60
477.06	13410.10
477.27	13877.04
477.47	13985.58
477.68	13911.85
477.89	13936.43
478.09	14108.46
478.30	13952.81
478.51	14282.53
478.71	14335.78
478.92	14337.83
479.13	14522.15
479.34	14626.59
479.54	14731.04
479.75	14642.98
479.96	14739.23
480.16	14970.65
480.37	15197.98
480.58	15234.84
480.78	15224.60
480.99	15327.00
481.20	15521.56
481.41	15585.04
481.61	15654.67
481.82	15767.31
482.03	15968.01
482.23	15863.57
482.44	15920.91
482.65	16277.26
482.85	16068.36
483.06	16381.70
483.27	16461.57
483.47	16586.50
483.68	16574.21
483.89	16936.70
484.09	16701.19
484.30	16547.59
484.51	16971.52
484.71	17127.16
484.92	16885.50
485.13	17051.39
485.33	17346.30
485.54	17309.43
485.75	17690.35
485.95	17637.11
486.16	17587.96
486.37	17889.01
486.57	17782.51
486.78	18161.39
486.98	18079.47
487.19	17852.14
487.40	18177.77
487.60	18585.32
487.81	18423.53
488.02	18634.47
488.22	18644.71
488.43	18757.35
488.64	18921.18
488.84	18933.47
489.05	19023.58
489.25	18900.70
489.46	19240.67
489.67	19136.22
489.87	19404.50
490.08	19453.66
490.29	19500.76
490.49	19842.77
490.70	19785.43
490.90	19893.97
491.11	19834.58
491.32	19891.92
491.52	19994.32
491.73	20033.23
491.94	20170.44
492.14	20039.37
492.35	20365.00
492.55	20512.46
492.76	20508.36
492.97	20747.97
493.17	20956.86
493.38	21075.65
493.58	20991.68
493.79	21028.54
494.00	21092.03
494.20	21329.59
494.41	21368.51
494.61	21323.45
494.82	21354.17
495.02	21085.89
495.23	21524.15
495.44	21558.97
495.64	21679.80
495.85	21536.44
496.05	22103.73
496.26	21626.55
496.47	22124.21
496.67	22126.25
496.88	22097.58
497.08	22087.34
497.29	22263.47
497.49	21972.66
497.70	22472.36
497.91	22623.91
498.11	22349.48
498.32	22789.80
498.52	22707.88
498.73	23008.93
498.93	23062.18
499.14	22933.15
499.34	22941.35
499.55	23426.71
499.76	23250.59
499.96	23246.49
500.17	23158.43
500.37	23312.03
500.58	23072.42
500.78	23477.91
500.99	23377.56
501.19	23742.10
501.40	23627.42
501.60	23658.14
501.81	23776.92
502.02	23332.51
502.22	23705.24
502.43	24231.57
502.63	24258.19
502.84	24221.33
503.04	24508.04
503.25	24151.70
503.45	24379.02
503.66	24735.37
503.86	24319.63
504.07	24780.42
504.27	24503.95
504.48	24716.93
504.68	24829.57
504.89	25028.23
505.09	25081.47
505.30	24981.12
505.50	24819.33
505.71	25069.19
505.91	25265.79
506.12	25329.28
506.32	25226.88
506.53	25583.23
506.73	25333.37
506.94	25458.30
507.14	25132.67
507.35	25550.46
507.55	25611.90
507.76	25712.25
507.96	25421.44
508.17	25695.86
508.37	25755.26
508.58	25865.85
508.78	25923.19
508.99	26328.69
509.19	26426.99
509.40	26371.69
509.60	26177.14
509.81	26490.48
510.01	26146.42
510.22	26046.07
510.42	26248.82
510.63	26746.47
510.83	26510.96
511.04	26687.08
511.24	26984.04
511.44	26506.86
511.65	26920.55
511.85	26355.31
512.06	27094.63
512.26	27240.03
512.47	26900.07
512.67	26994.28
512.88	27229.79
513.08	26938.98
513.29	27307.62
513.49	27223.65
513.69	27545.18
513.90	27459.16
514.10	27244.13
514.31	27885.14
514.51	27643.48
514.72	27598.43
514.92	27426.40
515.13	27971.16
515.33	27846.23
515.53	27983.44
515.74	27799.13
515.94	28057.17
516.15	27967.06
516.35	28028.50
516.56	28108.37
516.76	28061.27
516.96	28149.33
517.17	28477.01
517.37	28487.25
517.58	28436.05
517.78	28556.88
517.99	28995.14
518.19	28575.31
518.39	28886.60
518.60	29161.03
518.80	28741.19
519.01	29118.02
519.21	28866.12
519.41	29349.44
519.62	29083.20
519.82	29226.56
520.03	29877.82
520.23	29660.73
520.43	29107.78
520.64	29990.45
520.84	29908.54
521.05	29601.34
521.25	29646.40
521.45	29746.75
521.66	30459.44
521.86	30006.84
522.07	30264.88
522.27	30342.70
522.47	30103.09
522.68	30813.74
522.88	30201.40
523.08	30451.25
523.29	30365.23
523.49	30613.04
523.70	30682.67
523.90	31256.10
524.10	31094.31
524.31	31520.29
524.51	30774.83
524.71	31036.97
524.92	31190.56
525.12	31391.26
525.33	31299.11
525.53	31495.71
525.73	31833.63
525.94	31663.64
526.14	31510.05
526.34	31708.70
526.55	32108.05
526.75	32208.40
526.95	32335.38
527.16	32208.40
527.36	31954.46
527.56	32331.28
527.77	32708.11
527.97	32603.66
528.17	32755.21
528.38	32441.87
528.58	32613.90
528.78	32396.82
528.99	33033.74
529.19	33254.92
529.39	32873.99
529.60	33097.22
529.80	32994.82
530.00	33469.95
530.21	33656.32
530.41	33676.80
530.61	33625.60
530.82	33814.01
531.02	33656.32
531.22	33943.03
531.43	33930.75
531.63	34162.17
531.83	34471.41
532.04	34436.59
532.24	34440.69
532.44	34334.20
532.64	34436.59
532.85	34823.66
533.05	34170.36
533.25	34688.49
533.46	34504.18
533.66	35110.38
533.86	34600.43
534.07	35220.97
534.27	34973.16
534.47	35433.96
534.67	35495.39
534.88	35223.01
535.08	35352.04
535.28	35366.37
535.49	35423.72
535.69	35950.04
535.89	35831.26
536.09	36160.98
536.30	36101.59
536.50	35911.13
536.70	36296.15
536.91	36101.59
537.11	36574.67
537.31	36548.05
537.51	36443.60
537.72	37004.75
537.92	37041.61
538.12	36812.24
538.32	37017.04
538.53	36828.62
538.73	36740.56
538.93	36617.68
539.13	36912.59
539.34	37225.93
539.54	37391.81
539.74	37266.89
539.94	37320.13
540.15	37295.56
540.35	37883.33
540.55	37637.57
540.75	37739.97
540.96	37512.64
541.16	37438.92
541.36	37905.85
541.56	37713.34
541.77	37985.72
541.97	37660.10
542.17	38630.83
542.37	38063.55
542.58	37938.62
542.78	38260.15
542.98	38114.75
543.18	38774.19
543.38	38819.25
543.59	38739.38
543.79	38581.68
543.99	38499.76
544.19	38749.62
544.40	38745.52
544.60	39198.12
544.80	39050.67
545.00	38718.90
545.20	39247.27
545.41	39050.67
545.61	39116.20
545.81	39126.44
546.01	39271.85
546.21	39105.96
546.42	39077.29
546.62	39667.11
546.82	39703.97
547.02	39624.10
547.22	39564.71
547.43	39335.34
547.63	39679.39
547.83	40002.97
548.03	39945.63
548.23	40211.87
548.44	39892.38
548.64	39949.73
548.84	40183.19
549.04	39830.94
549.24	40349.08
549.45	40492.44
549.65	40390.04
549.85	40220.06
550.05	40795.54
550.25	40066.46
550.45	40979.85
550.66	40787.35
550.86	40541.59
551.06	40617.36
551.26	40488.34
551.46	40496.53
551.66	41133.45
551.87	40889.74
552.07	40650.13
552.27	41235.85
552.47	40920.46
552.67	41411.98
552.87	41385.35
553.07	41276.81
553.28	41702.79
553.48	41334.15
553.68	41205.13
553.88	41344.39
554.08	41385.35
554.28	41465.22
554.48	41831.81
554.69	41342.35
554.89	41856.39
555.09	41737.60
555.29	41592.20
555.49	41952.64
555.69	41803.14
555.89	41823.62
556.10	42323.32
556.30	42370.43
556.50	42065.28
556.70	42079.61
556.90	42376.57
557.10	42263.93
557.30	42304.89
557.50	42124.67
557.70	42521.98
557.91	42548.60
558.11	42315.13
558.31	42640.76
558.51	42567.03
558.71	42296.70
558.91	43021.68
559.11	42884.47
559.31	42599.80
559.51	42593.65
559.72	43156.85
559.92	43218.28
560.12	42845.55
560.32	43138.41
560.52	43158.89
560.72	43367.79
560.92	43246.96
561.12	43216.24
561.32	43789.67
561.52	43296.11
561.72	43943.27
561.93	43253.10
562.13	43476.33
562.33	43472.23
562.53	44356.96
562.73	43259.24
562.93	43875.68
563.13	43701.61
563.33	43275.63
563.53	43818.34
563.73	44014.94
563.93	43951.46
564.13	44510.55
564.33	43922.79
564.53	44229.98
564.74	44217.69
564.94	44004.70
565.14	44516.70
565.34	44016.99
565.54	44215.65
565.74	44123.49
565.94	44561.75
566.14	44602.71
566.34	44440.92
566.54	44782.93
566.74	44651.86
566.94	45200.72
567.14	44746.07
567.34	44817.75
567.54	45020.50
567.74	44569.94
567.94	44891.48
568.14	44668.25
568.34	44844.37
568.54	45219.15
568.74	44911.95
568.94	45137.23
569.14	45542.73
569.34	45202.77
569.54	45196.62
569.75	45032.78
569.95	45020.50
570.15	45641.03
570.35	45577.54
570.55	45276.49
570.75	45665.61
570.95	45829.44
571.15	45718.85
571.35	45497.67
571.55	45815.11
571.75	45819.20
571.95	45933.89
572.15	45796.68
572.35	46404.92
572.55	45880.64
572.75	46138.69
572.95	45974.85
573.15	45870.40
573.35	46169.41
573.55	46138.69
573.75	46161.22
573.95	46247.23
574.15	46134.59
574.35	46318.91
574.55	46388.54
574.75	46372.16
574.95	46640.44
575.15	45987.14
575.34	46333.24
575.54	46761.27
575.74	46835.00
575.94	46566.71
576.14	46732.60
576.34	47013.17
576.54	46933.30
576.74	46955.83
576.94	46736.69
577.14	46701.88
577.34	47291.69
577.54	47013.17
577.74	47240.50
577.94	47299.89
578.14	47332.65
578.34	47449.39
578.54	46841.14
578.74	46968.12
578.94	47650.09
579.14	47078.71
579.34	47076.66
579.54	47246.64
579.74	47738.15
579.94	47734.06
580.13	47725.86
580.33	47949.09
580.53	47920.42
580.73	48039.20
580.93	47590.70
581.13	47834.41
581.33	47912.23
581.53	48522.52
581.73	47885.61
581.93	48358.69
582.13	48026.92
582.33	48104.74
582.53	47887.65
582.73	48026.92
582.92	48112.93
583.12	48387.36
583.32	48387.36
583.52	47973.67
583.72	48770.33
583.92	48434.46
584.12	48354.59
584.32	48971.03
584.52	48897.30
584.72	48379.17
584.92	48880.92
585.11	49030.42
585.31	48987.41
585.51	49108.24
585.71	48692.50
585.91	48985.36
586.11	48729.37
586.31	48264.48
586.51	49063.19
586.71	49067.28
586.91	49321.23
587.10	49069.33
587.30	48944.41
587.50	49411.34
587.70	49190.16
587.90	49399.05
588.10	49298.70
588.30	49431.82
588.50	50181.38
588.69	49562.89
588.89	49259.79
589.09	49657.10
589.29	49579.28
589.49	49792.26
589.69	49552.65
589.89	49397.01
590.08	49886.47
590.28	49493.26
590.48	49753.35
590.68	49761.54
590.88	50042.12
591.08	50160.90
591.28	49272.08
591.47	50369.79
591.67	49521.93
591.87	50253.06
592.07	49575.18
592.27	50056.45
592.47	49741.06
592.67	49896.71
592.86	49863.94
593.06	50201.86
593.26	49964.29
593.46	50001.16
593.66	50390.27
593.86	50269.44
594.05	50447.61
594.25	50564.35
594.45	50062.60
594.65	50871.54
594.85	49956.10
595.05	50490.62
595.24	50814.20
595.44	50314.50
595.64	50466.05
595.84	50439.42
596.04	50631.93
596.23	50711.80
596.43	50867.45
596.63	50849.02
596.83	50828.54
597.03	51023.09
597.22	51127.54
597.42	51182.84
597.62	51344.62
597.82	51266.80
598.02	51012.85
598.21	51627.24
598.41	51217.65
598.61	51318.00
598.81	51234.03
599.01	51221.75
599.20	51397.87
599.40	51287.28
599.60	51590.38
599.80	51635.44
600.00	51418.35
600.19	51897.58
600.39	51498.22
600.59	51786.99
600.79	51514.61
600.98	51793.13
601.18	52346.08
601.38	51924.20
601.58	52419.81
601.78	52014.31
601.97	51977.45
602.17	52430.05
602.37	51922.15
602.57	52227.30
602.76	52473.06
602.96	52235.49
603.16	52446.43
603.36	52749.53
603.55	52729.05
603.75	52161.76
603.95	53308.63
604.15	52876.51
604.34	52794.59
604.54	52851.93
604.74	53093.59
604.94	52921.56
605.13	53230.80
605.33	53269.72
605.53	52821.21
605.73	53492.94
605.92	52663.52
606.12	53077.21
606.32	53056.73
606.52	53384.40
606.71	53679.31
606.91	53667.02
607.11	53441.74
607.30	53710.03
607.50	53570.77
607.70	54164.68
607.90	53408.98
608.09	53286.10
608.29	53929.16
608.49	53677.26
608.68	53624.01
608.88	54015.18
609.08	54211.78
609.28	53875.91
609.47	53634.25
609.67	54668.48
609.87	54367.43
610.06	54695.10
610.26	54424.77
610.46	54346.95
610.66	54060.23
610.85	54117.57
611.05	54090.95
611.25	54441.15
611.44	53896.39
611.64	54369.47
611.84	54482.11
612.03	53906.63
612.23	54262.98
612.43	54615.23
612.62	54332.61
612.82	55164.09
613.02	54877.37
613.21	54740.16
613.41	54564.03
613.61	55313.59
613.80	54600.89
614.00	54445.25
614.20	54721.72
614.39	54789.31
614.59	54723.77
614.79	54965.43
614.98	54865.08
615.18	55104.70
615.38	54971.58
615.57	54662.33
615.77	55342.26
615.97	55196.85
616.16	55227.57
616.36	54965.43
616.56	55237.81
616.75	55039.16
616.95	55022.78
617.15	55178.42
617.34	55698.61
617.54	55286.96
617.74	56034.47
617.93	55401.65
618.13	54877.37
618.32	55104.70
618.52	55284.92
618.72	55153.85
618.91	55278.77
619.11	55010.49
619.31	55358.64
619.50	55246.00
619.70	55186.61
619.90	55243.96
620.09	55805.10
620.29	55248.05
620.48	55602.35
620.68	55985.32
620.88	55209.14
621.07	55555.25
621.27	55424.18
621.46	55133.37
621.66	55448.75
621.86	55714.99
622.05	55491.76
622.25	55932.07
622.44	55674.03
622.64	55231.67
622.84	55669.93
623.03	55377.08
623.23	55493.81
623.42	55575.73
623.62	55674.03
623.82	55934.12
624.01	55897.26
624.21	55995.56
624.40	55626.93
624.60	55563.44
624.80	55272.63
624.99	55702.70
625.19	55284.92
625.38	56106.15
625.58	55706.80
625.77	55825.58
625.97	55563.44
626.17	55510.19
626.36	55301.30
626.56	55833.77
626.75	55207.09
626.95	55887.02
627.14	55745.71
627.34	55911.59
627.54	55651.50
627.73	55839.92
627.93	55844.01
628.12	55678.13
628.32	55731.37
628.51	55657.65
628.71	55454.90
628.90	55456.95
629.10	56026.28
629.30	55569.58
629.49	55946.41
629.69	55770.28
629.88	55420.08
630.08	55901.36
630.27	56370.34
630.47	55698.61
630.66	55911.59
630.86	56456.35
631.05	55753.90
631.25	56183.97
631.44	55923.88
631.64	55725.23
631.84	55895.21
632.03	56566.94
632.23	55903.40
632.42	56177.83
632.62	55737.52
632.81	56394.92
633.01	55907.50
633.20	56091.82
633.40	55954.60
633.59	56040.62
633.79	55538.86
633.98	55655.60
634.18	56081.58
634.37	56069.29
634.57	55895.21
634.76	56579.23
634.96	56054.95
635.15	56108.20
635.35	55712.94
635.54	55637.17
635.74	55932.07
635.93	55616.69
636.13	56044.71
636.32	56204.45
636.52	55549.10
636.71	55925.93
636.91	55923.88
637.10	55981.23
637.30	56036.52
637.49	56009.90
637.69	55622.83
637.88	56458.40
638.08	55618.74
638.27	56444.07
638.46	56167.59
638.66	56155.30
638.85	56245.41
639.05	56009.90
639.24	56302.76
639.44	55727.28
639.63	55956.65
639.83	55915.69
640.02	55997.61
640.22	55604.40
640.41	56437.92
640.61	55792.81
640.80	56396.96
640.99	55936.17
641.19	56274.09
641.38	55835.82
641.58	56116.39
641.77	55530.67
641.97	55284.92
642.16	55743.66
642.36	56145.06
642.55	56458.40
642.74	55977.13
642.94	56401.06
643.13	56175.78
643.33	56075.43
643.52	56423.59
643.72	56202.41
643.91	56013.99
644.10	56280.23
644.30	56597.66
644.49	56216.74
644.69	56290.47
644.88	56310.95
645.08	55825.58
645.27	56038.57
645.46	55671.98
645.66	56343.72
645.85	55899.31
646.05	56114.34
646.24	55919.79
646.43	56173.73
646.63	56358.05
646.82	56476.83
647.02	56286.37
647.21	56165.54
647.40	56128.68
647.60	56738.97
647.79	56560.80
647.99	56323.24
648.18	56241.32
648.37	57029.79
648.57	56554.66
648.76	56655.01
648.96	56147.11
649.15	56751.26
649.34	56360.10
649.54	56695.97
649.73	55983.27
649.92	56480.93
650.12	56442.02
650.31	55868.59
650.51	56251.56
650.70	56530.08
650.89	56466.59
651.09	56558.75
651.28	56548.51
651.47	56251.56
651.67	56585.38
651.86	56833.18
652.06	55964.84
652.25	56491.17
652.44	56403.11
652.64	56198.31
652.83	56042.66
653.02	56110.25
653.22	56036.52
653.41	56054.95
653.60	55760.05
653.80	55876.78
653.99	56597.66
654.18	56138.92
654.38	56186.02
654.57	56280.23
654.76	55923.88
654.96	55946.41
655.15	56128.68
655.34	56194.21
655.54	56145.06
655.73	55721.13
655.92	56444.07
656.12	56153.26
656.31	55942.31
656.50	56497.31
656.70	56329.38
656.89	56050.86
657.08	56241.32
657.28	56425.64
657.47	56124.58
657.66	56380.58
657.86	56456.35
658.05	56589.47
658.24	56351.91
658.43	55821.48
658.63	56341.67
658.82	56724.64
659.01	56194.21
659.21	56587.42
659.40	56034.47
659.59	56331.43
659.79	56409.25
659.98	56474.79
660.17	56431.78
660.36	56018.09
660.56	56112.30
660.75	56231.08
660.94	56165.54
661.14	56599.71
661.33	56265.89
661.52	55893.16
661.71	56482.98
661.91	56054.95
662.10	56507.55
662.29	56562.85
662.49	55882.92
662.68	56337.57
662.87	56439.97
663.06	56476.83
663.26	56534.18
663.45	56571.04
663.64	56499.36
663.83	56849.56
664.03	56214.69
664.22	56321.19
664.41	56904.86
664.60	56267.94
664.80	56278.18
664.99	56325.28
665.18	56204.45
665.37	56077.48
665.57	56722.59
665.76	56296.61
665.95	56630.43
666.14	56448.16
666.34	56306.85
666.53	56452.26
666.72	56198.31
666.91	56335.52
667.11	56163.50
667.30	56845.47
667.49	56503.46
667.68	56331.43
667.87	56218.79
668.07	56841.37
668.26	56173.73
668.45	56245.41
668.64	56282.28
668.84	56794.27
669.03	56702.11
669.22	56417.44
669.41	56679.58
669.60	56878.24
669.80	56466.59
669.99	56562.85
670.18	56310.95
670.37	56847.52
670.57	56837.28
670.76	56276.13
670.95	56558.75
671.14	56485.03
671.33	55981.23
671.53	56849.56
671.72	56546.47
671.91	56749.21
672.10	56454.31
672.29	56534.18
672.48	56564.90
672.68	56573.09
672.87	56155.30
673.06	56476.83
673.25	56503.46
673.44	56433.83
673.64	56159.40
673.83	56210.60
674.02	56267.94
674.21	56458.40
674.40	56370.34
674.59	56018.09
674.79	56425.64
674.98	56487.07
675.17	56362.15
675.36	56675.49
675.55	57078.94
675.74	56403.11
675.94	56548.51
676.13	56775.84
676.32	56542.37
676.51	57056.41
676.70	56452.26
676.89	56802.46
677.08	57113.75
677.28	56038.57
677.47	57402.52
677.66	57216.15
677.85	56796.32
678.04	56827.04
678.23	56853.66
678.42	56794.27
678.62	56503.46
678.81	56720.54
679.00	56757.41
679.19	57173.14
679.38	56747.17
679.57	56824.99
679.76	56734.88
679.96	56972.44
680.15	57003.16
680.34	56525.99
680.53	56749.21
680.72	57230.49
680.91	56882.33
681.10	56988.83
681.29	56915.10
681.48	56796.32
681.68	56726.69
681.87	57005.21
682.06	56433.83
682.25	56433.83
682.44	56779.93
682.63	57070.75
682.82	56257.70
683.01	56546.47
683.20	56210.60
683.39	56644.77
683.59	56489.12
683.78	56552.61
683.97	56358.05
684.16	56423.59
684.35	56239.27
684.54	57054.36
684.73	56419.49
684.92	56439.97
685.11	56415.40
685.30	56128.68
685.49	56439.97
685.69	56566.94
685.88	56636.58
686.07	56493.22
686.26	56661.15
686.45	56712.35
686.64	56579.23
686.83	56550.56
687.02	56370.34
687.21	56999.07
687.40	56392.87
687.59	56595.62
687.78	56624.29
687.97	57246.87
688.16	56677.54
688.35	55970.99
688.54	56622.24
688.74	56425.64
688.93	56251.56
689.12	56480.93
689.31	56583.33
689.50	56607.90
689.69	56059.05
689.88	56048.81
690.07	56517.79
690.26	56464.55
690.45	56683.68
690.64	56396.96
690.83	55997.61
691.02	56073.38
691.21	56239.27
691.40	56300.71
691.59	56323.24
691.78	56179.88
691.97	56333.48
692.16	56763.55
692.35	56046.76
692.54	56282.28
692.73	56482.98
692.92	56394.92
693.11	55934.12
693.30	56011.95
693.49	56349.86
693.68	56173.73
693.87	56353.96
694.06	55952.55
694.25	56083.62
694.44	55960.75
694.63	56145.06
694.82	56442.02
695.01	56341.67
695.20	56022.19
695.39	55604.40
695.58	56392.87
695.77	55471.28
695.96	55841.96
696.15	55866.54
696.34	55436.47
696.53	55946.41
696.72	56188.07
696.91	55743.66
697.10	55952.55
697.29	55827.63
697.48	55606.45
697.67	55338.16
697.86	55825.58
698.05	55182.52
698.24	55725.23
698.43	55028.92
698.62	55579.82
698.81	55592.11
699.00	55428.27
699.19	55133.37
699.38	55565.49
699.57	55071.93
699.76	55821.48
699.95	55258.29
700.14	54883.51
700.32	55479.47
700.51	55172.28
700.70	55184.57
700.89	55391.41
701.08	55260.34
701.27	54789.31
701.46	55280.82
701.65	54559.94
701.84	55608.50
702.03	54863.03
702.22	54699.20
702.41	54764.73
702.60	54715.58
702.79	54754.49
702.98	54961.34
703.17	54662.33
703.35	54052.04
703.54	54377.67
703.73	54846.65
703.92	54770.88
704.11	54420.67
704.30	54183.11
704.49	54410.43
704.68	54115.53
704.87	54383.81
705.06	54668.48
705.25	54285.51
705.43	54336.71
705.62	54166.73
705.81	54623.42
706.00	54326.47
706.19	54199.49
706.38	54000.84
706.57	54269.12
706.76	54107.33
706.95	54045.90
707.14	53521.62
707.32	54062.28
707.51	53499.09
707.70	53681.36
707.89	53585.10
708.08	53914.83
708.27	53503.18
708.46	53853.39
708.65	53877.96
708.84	53773.52
709.02	53757.13
709.21	54066.38
709.40	53814.47
709.59	53654.73
709.78	52997.34
709.97	53568.72
710.16	53544.14
710.34	53247.19
710.53	53472.46
710.72	53007.58
710.91	53042.39
711.10	53189.84
711.29	53165.27
711.48	53099.73
711.66	52864.22
711.85	53275.86
712.04	53032.15
712.23	52821.21
712.42	53236.95
712.61	52817.11
712.80	52954.33
712.98	53011.67
713.17	52591.84
713.36	52638.94
713.55	52821.21
713.74	52483.30
713.93	52587.74
714.11	52448.48
714.30	52313.31
714.49	52260.07
714.68	52190.44
714.87	52524.25
715.06	52204.77
715.24	52157.67
715.43	52229.35
715.62	52301.03
715.81	52131.04
716.00	51778.79
716.18	51993.83
716.37	51774.70
716.56	51973.35
716.75	52126.95
716.94	51846.38
717.12	51354.86
717.31	51688.68
717.50	51582.19
717.69	51829.99
717.88	51487.98
718.06	51416.30
718.25	51784.94
718.44	51156.21
718.63	51291.38
718.82	51076.34
719.00	51117.30
719.19	51004.66
719.38	51254.51
719.57	50951.41
719.76	50590.97
719.94	50468.09
720.13	51008.76
720.32	51068.15
720.51	51074.29
720.69	50418.94
720.88	50771.19
721.07	50318.59
721.26	50148.61
721.44	50144.51
721.63	50316.54
721.82	50423.04
722.01	49935.62
722.20	50504.96
722.38	49906.95
722.57	49984.77
722.76	50140.42
722.95	49689.87
723.13	49532.17
723.32	49777.93
723.51	49671.43
723.70	49331.47
723.88	49095.95
724.07	48950.55
724.26	49296.66
724.44	48794.90
724.63	49370.38
724.82	49413.39
725.01	49487.12
725.19	48983.32
725.38	48745.75
725.57	48815.38
725.76	48733.46
725.94	48473.37
726.13	48426.27
726.32	48573.72
726.51	48612.63
726.69	48973.08
726.88	48958.74
727.07	48661.79
727.25	48729.37
727.44	48588.06
727.63	48467.23
727.82	48545.05
728.00	48723.22
728.19	48434.46
728.38	48940.31
728.56	48053.54
728.75	48788.76
728.94	48387.36
729.12	48504.09
729.31	48223.52
729.50	48327.97
729.69	48321.82
729.87	48102.69
730.06	48012.58
730.25	48174.37
730.43	48452.89
730.62	47949.09
730.81	48409.89
730.99	48397.60
731.18	47865.13
731.37	48366.88
731.55	48477.47
731.74	48532.76
731.93	48356.64
732.11	48403.74
732.30	48334.11
732.49	47815.97
732.67	48112.93
732.86	47953.19
733.05	47772.97
733.23	47736.10
733.42	47512.88
733.61	48215.33
733.79	48076.07
733.98	48364.83
734.17	47439.15
734.35	47807.78
734.54	48078.11
734.73	47977.76
734.91	47736.10
735.10	47195.44
735.29	47748.39
735.47	47414.57
735.66	47783.21
735.84	47508.78
736.03	47396.14
736.22	48020.77
736.40	47533.35
736.59	47887.65
736.78	47404.33
736.96	47590.70
737.15	47414.57
737.33	47273.26
737.52	46957.88
737.71	47275.31
737.89	47254.83
738.08	46845.24
738.27	47084.85
738.45	47949.09
738.64	47191.34
738.82	47502.64
739.01	47121.71
739.20	46667.06
739.38	47117.62
739.57	47312.17
739.75	47144.24
739.94	47197.49
740.13	47093.04
740.31	47398.19
740.50	47078.71
740.68	46931.25
740.87	47385.90
741.06	46902.58
741.24	46800.18
741.43	46392.64
741.61	46994.74
741.80	46605.62
741.99	46540.09
742.17	46593.34
742.36	46789.94
742.54	46564.67
742.73	46748.98
742.91	46406.97
743.10	46343.48
743.29	47062.32
743.47	46880.05
743.66	46679.35
743.84	46589.24
744.03	46331.20
744.21	46284.09
744.40	46785.85
744.59	46298.43
744.77	46282.05
744.96	46316.86
745.14	46259.52
745.33	46161.22
745.51	46351.68
745.70	46280.00
745.88	46372.16
746.07	46132.54
746.26	45927.75
746.44	46124.35
746.63	45735.24
746.81	45761.86
747.00	45526.35
747.18	45880.64
747.37	45694.28
747.55	45831.49
747.74	46144.83
747.92	45948.23
748.11	45552.97
748.29	45737.29
748.48	45954.37
748.66	45925.70
748.85	46245.18
749.03	45737.29
749.22	45929.80
749.41	45657.42
749.59	45497.67
749.78	45696.33
749.96	45583.69
750.15	45503.82
750.33	45960.51
750.52	45624.65
750.70	45262.16
750.89	45350.22
751.07	45561.16
751.26	45108.56
751.44	45366.60
751.63	45055.31
751.81	45344.08
752.00	45145.42
752.18	45251.92
752.37	45469.00
752.55	45063.50
752.74	45167.95
752.92	45268.30
753.10	45024.59
753.29	44965.20
753.47	45020.50
753.66	45047.12
753.84	44936.53
754.03	44934.48
754.21	44787.03
754.40	45155.66
754.58	45317.45
754.77	45034.83
754.95	44686.68
755.14	44709.21
755.32	44848.47
755.51	44909.91
755.69	45020.50
755.88	44502.36
756.06	44748.12
756.24	44844.37
756.43	44635.48
756.61	44914.00
756.80	44565.85
756.98	44066.14
757.17	44213.60
757.35	44297.56
757.54	44332.38
757.72	44518.74
757.90	44436.83
758.09	44485.98
758.27	44762.45
758.46	44391.77
758.64	44107.10
758.83	44383.58
759.01	44338.52
759.19	44438.87
759.38	44127.58
759.56	44246.36
759.75	44068.19
759.93	44246.36
760.12	43810.15
760.30	44428.63
760.48	44295.52
760.67	43840.87
760.85	44176.73
761.04	44287.32
761.22	44244.32
761.40	44219.74
761.59	43930.98
761.77	43812.20
761.96	43881.83
762.14	43941.22
762.32	43883.87
762.51	43914.59
762.69	43877.73
762.88	43400.55
763.06	43754.85
763.24	44127.58
763.43	43851.11
763.61	43816.29
763.80	43648.36
763.98	43806.05
764.16	43427.18
764.35	42970.48
764.53	42804.59
764.72	43507.05
764.90	43097.45
765.08	43328.87
765.27	43386.22
765.45	42964.34
765.63	42784.12
765.82	43097.45
766.00	43343.21
766.18	43119.98
766.37	43173.23
766.55	42562.93
766.74	43144.56
766.92	42997.10
767.10	42784.12
767.29	42771.83
767.47	42233.21
767.65	43029.87
767.84	42734.96
768.02	42677.62
768.20	42179.96
768.39	42710.39
768.57	43038.06
768.75	42726.77
768.94	42849.65
769.12	42583.41
769.30	42329.47
769.49	42685.81
769.67	42083.71
769.85	42327.42
770.04	42392.95
770.22	42089.85
770.40	42282.36
770.59	42112.38
770.77	42454.39
770.95	42112.38
771.14	41772.42
771.32	42036.61
771.50	41969.02
771.69	41770.37
771.87	41966.98
772.05	41880.96
772.24	41514.37
772.42	42009.98
772.60	41661.83
772.78	41543.05
772.97	41741.70
773.15	42546.55
773.33	41823.62
773.52	41698.69
773.70	41778.56
773.88	41721.22
774.07	41530.76
774.25	41428.36
774.43	41702.79
774.61	41665.92
774.80	41620.87
774.98	42169.72
775.16	42091.90
775.34	41885.06
775.53	41432.46
775.71	41948.54
775.89	42136.96
776.08	41567.62
776.26	41739.65
776.44	41977.22
776.62	41760.13
776.81	41735.56
776.99	41805.19
777.17	41778.56
777.35	41923.97
777.54	42186.11
777.72	42132.86
777.90	41856.39
778.08	41870.72
778.27	41973.12
778.45	41823.62
778.63	42464.63
778.81	41551.24
779.00	42546.55
779.18	42212.73
779.36	42530.17
779.54	42341.75
779.73	42042.75
779.91	42526.07
780.09	42616.18
780.27	42423.67
780.46	42368.38
780.64	42427.77
780.82	42476.92
781.00	42454.39
781.19	42747.25
781.37	42620.28
781.55	42442.10
781.73	43216.24
781.91	42370.43
782.10	42843.51
782.28	42767.73
782.46	42833.27
782.64	42708.34
782.82	42853.75
783.01	43267.44
783.19	42898.80
783.37	42661.24
783.55	42573.17
783.74	43255.15
783.92	42833.27
784.10	43191.66
784.28	42906.99
784.46	42425.72
784.64	42399.10
784.83	43058.54
785.01	43079.02
785.19	42665.33
785.37	42888.56
785.55	42653.05
785.74	42474.87
785.92	42403.19
786.10	43140.46
786.28	42734.96
786.46	42478.97
786.64	41874.82
786.83	42448.25
787.01	42526.07
787.19	42452.34
787.37	42636.66
787.55	42188.16
787.74	42122.62
787.92	42335.61
788.10	42022.27
788.28	42071.42
788.46	42448.25
788.64	41684.36
788.82	42341.75
789.01	42032.51
789.19	42210.68
789.37	41792.90
789.55	41680.26
789.73	41487.75
789.91	41747.84
790.09	41723.27
790.28	41637.25
790.46	41547.14
790.64	41684.36
790.82	41172.36
791.00	41272.71
791.18	41018.77
791.36	40871.31
791.55	41233.80
791.73	40799.63
791.91	40961.42
792.09	41198.99
792.27	41371.02
792.45	41362.82
792.63	40510.87
792.81	40666.52
793.00	40805.78
793.18	40596.88
793.36	40621.46
793.54	40275.35
793.72	40281.50
793.90	40039.84
794.08	39634.34
794.26	40281.50
794.44	39847.33
794.62	39695.78
794.81	39849.38
794.99	39577.00
795.17	39470.50
795.35	39527.84
795.53	39593.38
795.71	39802.27
795.89	39208.36
796.07	38833.58
796.25	39085.48
796.43	38839.73
796.61	38761.90
796.80	38852.02
796.98	38835.63
797.16	38475.19
797.34	38618.55
797.52	38548.92
797.70	38731.18
797.88	38567.35
798.06	37909.95
798.24	37934.53
798.42	38112.70
798.60	38086.07
798.78	37733.82
798.96	37725.63
799.14	37854.65
799.32	37696.96
799.51	37514.69
799.69	38000.06
799.87	37385.67
800.05	36922.83
800.23	36967.88
800.41	37144.01
800.59	37385.67
800.77	37103.05
800.95	36754.90
801.13	36746.70
801.31	36314.58
801.49	36769.23
801.67	36312.53
801.85	36285.91
802.03	36468.18
802.21	35821.02
802.39	36154.84
802.57	35778.01
802.75	35577.31
802.93	35761.63
803.11	35911.13
803.29	35608.03
803.47	35370.47
803.65	35870.17
803.83	35585.50
804.01	35479.01
804.19	35245.54
804.37	35216.87
804.55	35208.68
804.73	35427.81
804.91	35028.46
805.09	35200.49
805.27	35163.62
805.45	34915.82
805.63	35067.37
805.81	34604.53
805.99	34840.04
806.17	34780.65
806.35	34688.49
806.53	34145.78
806.71	34205.17
806.89	34297.33
807.07	34076.15
807.25	34147.83
807.43	33789.44
807.61	34235.89
807.79	34018.81
807.97	33889.79
808.15	33990.14
808.33	33670.65
808.51	33535.49
808.69	33349.12
808.87	33347.08
809.05	33277.44
809.23	33295.88
809.41	32828.94
809.59	33080.84
809.77	33175.05
809.95	32966.15
810.13	32730.64
810.31	32759.31
810.49	32929.29
810.67	32706.06
810.84	32927.24
811.02	32450.06
811.20	32603.66
811.38	32286.23
811.56	32269.84
811.74	32118.29
811.92	32202.26
812.10	32298.52
812.28	32347.67
812.46	31807.00
812.64	32257.56
812.82	31813.15
813.00	31895.07
813.18	31778.33
813.36	31897.11
813.53	31477.28
813.71	31702.56
813.89	31585.82
814.07	31702.56
814.25	31333.92
814.43	31057.45
814.61	31331.87
814.79	31000.10
814.97	31245.86
815.15	30752.30
815.33	30780.97
815.50	30699.05
815.68	31045.16
815.86	31241.76
816.04	30733.87
816.22	30651.95
816.40	30613.04
816.58	30539.31
816.76	30406.19
816.94	30281.27
817.11	30434.86
817.29	30479.92
817.47	30305.84
817.65	30295.60
817.83	30043.70
818.01	30019.13
818.19	30053.94
818.37	29797.95
818.54	29693.50
818.72	29787.71
818.90	30055.99
819.08	29711.93
819.26	29783.61
819.44	29572.67
819.62	29255.23
819.80	29697.59
819.97	29580.86
820.15	29484.61
820.33	29335.10
820.51	29533.76
820.69	29226.56
820.87	29322.82
821.05	29615.68
821.22	29214.27
821.40	29054.53
821.58	28960.33
821.76	29152.84
821.94	28859.98
822.12	29085.25
822.29	28927.56
822.47	28765.77
822.65	28460.62
822.83	28788.30
823.01	28755.53
823.19	28618.32
823.36	28386.89
823.54	28431.95
823.72	28487.25
823.90	28444.24
824.08	28046.93
824.25	28206.67
824.43	27965.01
824.61	28304.98
824.79	28153.43
824.97	27907.67
825.15	28165.71
825.32	28210.77
825.50	28018.26
825.68	27577.95
825.86	28159.57
826.04	28018.26
826.21	27876.95
826.39	27719.26
826.57	27473.50
826.75	27498.08
826.93	27463.26
827.10	27573.85
827.28	27227.74
827.46	27502.17
827.64	27172.45
827.81	27557.47
827.99	27430.49
828.17	27121.25
828.35	26943.08
828.53	27240.03
828.70	27326.05
828.88	27078.24
829.06	27414.11
829.24	27307.62
829.41	26793.58
829.59	27289.18
829.77	26871.40
829.95	27164.26
830.12	26988.13
830.30	27205.22
830.48	26955.36
830.66	26693.22
830.84	26783.34
831.01	26840.68
831.19	26494.57
831.37	26642.03
831.55	26594.92
831.72	26529.39
831.90	26474.09
832.08	26672.74
832.25	26406.51
832.43	26517.10
832.61	26576.49
832.79	26234.48
832.96	25972.34
833.14	26443.37
833.32	26381.93
833.50	26291.82
833.67	26234.48
833.85	25996.92
834.03	25845.37
834.20	26039.92
834.38	26123.89
834.56	25982.58
834.74	26072.69
834.91	25849.46
835.09	25534.07
835.27	25411.20
835.44	25833.08
835.62	25745.02
835.80	25491.07
835.98	25849.46
836.15	25837.17
836.33	25499.26
836.51	25697.91
836.68	25124.48
836.86	25345.66
837.04	25450.11
837.21	25523.83
837.39	25441.92
837.57	25552.51
837.75	25517.69
837.92	24968.84
838.10	24858.24
838.28	24974.98
838.45	25075.33
838.63	24972.93
838.81	24942.21
838.98	24882.82
839.16	25060.99
839.34	25030.27
839.51	25157.25
839.69	24759.94
839.87	24714.89
840.04	24700.55
840.22	24989.31
840.40	24659.59
840.57	24458.89
840.75	24800.90
840.93	24186.51
841.10	24434.32
841.28	25054.85
841.46	24489.61
841.63	24774.28
841.81	24606.34
841.98	24465.03
842.16	24657.54
842.34	24567.43
842.51	24288.91
842.69	24522.38
842.87	24405.64
843.04	24520.33
843.22	24213.13
843.40	24407.69
843.57	24256.14
843.75	24258.19
843.92	24385.16
844.10	24204.94
844.28	24260.24
844.45	24065.68
844.63	24016.53
844.81	23965.33
844.98	24303.25
845.16	23910.04
845.33	24073.87
845.51	23799.44
845.69	23676.57
845.86	23887.51
846.04	23740.05
846.21	24018.58
846.39	23692.95
846.57	23651.99
846.74	23965.33
846.92	23844.50
847.09	23781.01
847.27	23443.10
847.45	23537.30
847.62	23793.30
847.80	23455.39
847.97	23502.49
848.15	23508.63
848.32	23264.92
848.50	23709.33
848.68	23455.39
848.85	23492.25
849.03	23115.42
849.20	23385.76
849.38	23285.40
849.56	23355.04
849.73	23230.11
849.91	23402.14
850.08	23258.78
850.26	22806.18
850.43	23049.89
850.61	23076.51
850.78	22781.60
850.96	23185.05
851.14	22896.29
851.31	23158.43
851.49	23039.65
851.66	23207.58
851.84	22546.09
852.01	23273.12
852.19	22963.87
852.36	22834.85
852.54	22769.32
852.71	22769.32
852.89	22793.89
853.07	22742.69
853.24	22548.14
853.42	22681.25
853.59	22851.24
853.77	22711.97
853.94	22679.21
854.12	22681.25
854.29	22480.55
854.47	22572.71
854.64	22118.06
854.82	22507.18
854.99	22560.42
855.17	22441.64
855.34	22216.36
855.52	22406.83
855.69	22396.59
855.87	22333.10
856.04	22339.24
856.22	22136.49
856.39	22136.49
856.57	22484.65
856.74	22400.68
856.92	22429.35
857.09	22210.22
857.27	22144.69
857.44	22601.38
857.62	22075.06
857.79	22091.44
857.97	22259.37
858.14	21843.63
858.32	21997.23
858.49	22085.30
858.67	22271.66
858.84	21898.93
859.02	21837.49
859.19	21829.30
859.37	21837.49
859.54	21841.59
859.72	22015.66
859.89	21720.76
860.06	21999.28
860.24	21604.02
860.41	21724.85
860.59	21550.78
860.76	21675.70
860.94	21399.23
861.11	21794.48
861.29	21411.51
861.46	21292.73
861.64	21360.31
861.81	21620.41
861.98	21552.82
862.16	21382.84
862.33	21415.61
862.51	21280.44
862.68	21429.94
862.86	21309.11
863.03	21186.24
863.21	20848.32
863.38	21104.32
863.55	21075.65
863.73	21038.78
863.90	21391.03
864.08	21132.99
864.25	21149.37
864.43	21239.48
864.60	21171.90
864.77	21110.46
864.95	20922.05
865.12	20856.51
865.30	21001.92
865.47	20846.27
865.64	20666.05
865.82	20811.46
865.99	20913.86
866.17	20788.93
866.34	20920.00
866.51	20557.51
866.69	20688.58
866.86	21063.36
867.04	20680.39
867.21	20766.40
867.38	20723.40
867.56	20627.14
867.73	20549.32
867.91	20432.58
868.08	20436.68
868.25	20324.04
868.43	20315.85
868.60	20418.25
868.78	20461.26
868.95	20539.08
869.12	20401.86
869.30	20358.86
869.47	20274.89
869.64	20068.05
869.82	20391.62
869.99	20254.41
870.16	20383.43
870.34	20229.84
870.51	20250.32
870.69	19963.60
870.86	19977.94
871.03	20213.45
871.21	20047.57
871.38	19887.82
871.55	20029.13
871.73	19822.29
871.90	19613.40
872.07	19830.48
872.25	19597.01
872.42	19402.46
872.59	19541.72
872.77	19474.13
872.94	19846.87
873.11	19269.34
873.29	19646.16
873.46	19345.11
873.63	19347.16
873.81	19295.96
873.98	19322.59
874.15	19422.94
874.33	19101.40
874.50	18933.47
874.67	19242.71
874.85	19029.73
875.02	18986.72
875.19	19150.56
875.37	18933.47
875.54	18925.28
875.71	19353.30
875.88	18931.42
876.06	18847.46
876.23	18550.50
876.40	18777.83
876.58	18964.19
876.75	19029.73
876.92	18874.08
877.10	18747.11
877.27	18423.53
877.44	18374.38
877.61	18474.73
877.79	18511.59
877.96	18302.70
878.13	18767.59
878.31	18198.25
878.48	18484.97
878.65	18317.03
878.82	18321.13
879.00	18345.70
879.17	18460.39
879.34	18296.55
879.51	18296.55
879.69	17876.72
879.86	17714.93
880.03	18030.32
880.21	17862.38
880.38	18099.95
880.55	18116.33
880.72	18161.39
880.90	17999.60
881.07	18071.28
881.24	17975.02
881.41	18015.98
881.59	17753.84
881.76	17815.28
881.93	17909.49
882.10	17794.80
882.28	17714.93
882.45	17614.58
882.62	17641.20
882.79	17829.62
882.96	17401.59
883.14	17590.00
883.31	17676.02
883.48	17721.07
883.65	17643.25
883.83	17622.77
884.00	17813.23
884.17	17553.14
884.34	17581.81
884.51	17745.65
884.69	17585.91
884.86	17622.77
885.03	17633.01
885.20	17385.21
885.38	17485.56
885.55	17311.48
885.72	17456.89
885.89	17297.14
886.06	17460.98
886.24	17399.54
886.41	17266.42
886.58	17297.14
886.75	17409.78
886.92	17008.38
887.10	17374.97
887.27	17118.97
887.44	17254.14
887.61	17145.59
887.78	17178.36
887.95	17012.48
888.13	16955.13
888.30	17053.44
888.47	16955.13
888.64	16957.18
888.81	16662.27
888.99	16862.97
889.16	16977.66
889.33	16623.36
889.50	16684.80
889.67	16645.89
889.84	16592.64
890.01	16977.66
890.19	16838.40
890.36	16703.23
890.53	16357.13
890.70	16473.86
890.87	16545.54
891.04	16430.85
891.22	16576.26
891.39	16367.37
891.56	16457.48
891.73	16131.85
891.90	16408.33
892.07	16350.98
892.24	16463.62
892.42	16133.90
892.59	16215.82
892.76	16054.03
892.93	16045.84
893.10	16213.77
893.27	16342.79
893.44	16056.08
893.61	16113.42
893.79	16113.42
893.96	16133.90
894.13	15830.80
894.30	16045.84
894.47	16039.69
894.64	16191.24
894.81	15795.98
894.98	16021.26
895.15	16013.07
895.33	15908.62
895.50	15925.00
895.67	16191.24
895.84	16060.17
896.01	15826.70
896.18	15795.98
896.35	15968.01
896.52	16129.80
896.69	15769.36
896.86	15886.09
897.04	15918.86
897.21	15972.11
897.38	15787.79
897.55	15718.16
897.72	16119.56
897.89	16144.14
898.06	16025.36
898.23	15591.19
898.40	15869.71
898.57	15978.25
898.74	15759.12
898.91	15687.44
899.08	15656.72
899.26	15892.24
899.43	15838.99
899.60	15703.82
899.77	15822.61
899.94	15810.32
900.11	15490.84
900.28	15593.23
900.45	15968.01
900.62	15683.34
900.79	15718.16
900.96	15918.86
901.13	15910.67
901.30	15693.58
901.47	15445.78
901.64	15847.18
901.81	15689.49
901.98	15531.80
902.15	15824.65
902.32	15621.91
902.49	15765.26
902.66	15755.02
902.83	15802.13
903.01	15777.55
903.18	15693.58
903.35	15519.51
903.52	15669.01
903.69	15671.06
903.86	15984.40
904.03	15750.93
904.20	15769.36
904.37	15750.93
904.54	15482.64
904.71	15791.89
904.88	15482.64
905.05	15441.68
905.22	16015.12
905.39	15378.20
905.56	15587.09
905.73	15460.12
905.90	15650.58
906.07	15666.96
906.24	15435.54
906.41	15537.94
906.58	15722.26
906.75	15427.35
906.92	15413.01
907.09	15449.88
907.26	15355.67
907.43	15394.58
907.60	15478.55
907.77	15515.41
907.93	15429.40
908.10	15712.02
908.27	15419.16
908.44	15429.40
908.61	15271.70
908.78	15195.93
908.95	15257.37
909.12	15468.31
909.29	15302.42
909.46	15460.12
909.63	15410.96
909.80	15445.78
909.97	15568.66
910.14	15073.05
910.31	15419.16
910.48	15638.29
910.65	15474.45
910.82	15304.47
910.99	15341.33
911.16	15300.37
911.33	15195.93
911.50	15341.33
911.66	15001.37
911.83	15030.04
912.00	15009.56
912.17	15165.21
912.34	14925.60
912.51	14987.04
912.68	14878.49
912.85	15001.37
913.02	15173.40
913.19	15021.85
913.36	15050.52
913.53	14794.53
913.70	15034.14
913.86	15044.38
914.03	14903.07
914.20	14808.86
914.37	14903.07
914.54	14884.64
914.71	14776.09
914.88	14661.41
915.05	14683.94
915.22	14518.05
915.39	14468.90
915.55	14655.26
915.72	14339.88
915.89	14432.04
916.06	14442.28
916.23	14159.66
916.40	14290.73
916.57	14237.48
916.74	14432.04
916.91	14178.09
917.07	13967.15
917.24	14135.08
917.41	14116.65
917.58	14303.01
917.75	14231.33
917.92	14087.98
918.09	13725.49
918.26	14090.02
918.42	13930.28
918.59	13926.19
918.76	13682.48
918.93	13735.73
919.10	13788.97
919.27	13750.06
919.44	13840.17
919.60	13887.28
919.77	13569.84
919.94	13420.34
920.11	13606.70
920.28	13535.03
920.45	13356.85
920.61	13297.46
920.78	13352.76
920.95	13371.19
921.12	13160.25
921.29	13291.32
921.46	13084.47
921.62	13037.37
921.79	12945.21
921.96	13096.76
922.13	12857.15
922.30	12554.05
922.47	12599.10
922.63	12693.31
922.80	12728.13
922.97	12527.42
923.14	12488.51
923.31	12670.78
923.47	12478.27
923.64	12621.63
923.81	12492.61
923.98	12406.59
924.15	12453.70
924.32	12508.99
924.48	12500.80
924.65	12410.69
924.82	12218.18
924.99	12144.45
925.15	11972.43
925.32	12109.64
925.49	11749.20
925.66	11827.02
925.83	11855.69
925.99	11775.82
926.16	11779.92
926.33	12029.77
926.50	11507.54
926.67	11794.25
926.83	11730.76
927.00	11681.61
927.17	11784.01
927.34	11448.15
927.50	11577.17
927.67	11583.31
927.84	11485.01
928.01	11474.77
928.17	11233.11
928.34	11331.41
928.51	11083.61
928.68	10930.01
928.84	10987.35
929.01	10909.53
929.18	10966.87
929.35	10993.50
929.51	10880.86
929.68	10698.59
929.85	10714.97
930.02	10735.45
930.18	10782.56
930.35	10647.39
930.52	10714.97
930.69	10563.42
930.85	10702.68
931.02	10418.02
931.19	10524.51
931.36	10317.67
931.52	10471.26
931.69	10321.76
931.86	10278.76
932.02	10209.12
932.19	10086.25
932.36	10239.84
932.53	10219.36
932.69	9994.09
932.86	9885.55
933.03	9975.66
933.19	9758.57
933.36	9856.87
933.53	9750.38
933.70	9504.62
933.86	9719.66
934.03	9662.32
934.20	9269.11
934.36	9523.05
934.53	9383.79
934.70	9170.80
934.86	9348.98
935.03	9041.78
935.20	9168.76
935.36	9088.89
935.53	8834.94
935.70	8955.77
935.86	9011.06
936.03	8779.64
936.20	8669.05
936.36	8605.56
936.53	8505.21
936.70	8419.20
936.86	8693.63
937.03	8443.78
937.20	8247.17
937.36	8236.93
937.53	7892.87
937.70	8107.91
937.86	7882.63
938.03	7876.49
938.20	8071.04
938.36	7651.21
938.53	7874.44
938.70	7516.05
938.86	7554.96
939.03	7405.46
939.20	7284.62
939.36	7219.09
939.53	7131.03
939.70	7350.16
939.86	6983.57
940.03	6967.19
940.19	6899.61
940.36	6739.87
940.53	6782.87
940.69	6776.73
940.86	6715.29
941.03	6477.73
941.19	6510.49
941.36	6231.97
941.52	6289.31
941.69	6332.32
941.86	6158.24
942.02	6234.02
942.19	6164.39
942.35	6025.12
942.52	6045.60
942.69	5881.77
942.85	5912.49
943.02	5875.62
943.18	5816.23
943.35	5808.04
943.52	5697.45
943.68	5783.46
943.85	5726.12
944.01	5558.19
944.18	5590.95
944.35	5617.58
944.51	5554.09
944.68	5427.12
944.84	5318.57
945.01	5531.56
945.17	5347.25
945.34	5742.50
945.51	5504.94
945.67	5363.63
945.84	5304.24
946.00	5357.49
946.17	5294.00
946.33	5169.07
946.50	5304.24
946.67	5339.05
946.83	5234.61
947.00	5402.54
947.16	5183.41
947.33	5265.33
947.49	5392.30
947.66	5361.58
947.82	5384.11
947.99	5320.62
948.16	5261.23
948.32	5142.45
948.49	5394.35
948.65	5332.91
948.82	5150.64
948.98	5191.60
949.15	5181.36
949.31	5412.78
949.48	5326.77
949.64	5185.46
949.81	5275.57
949.97	5257.14
950.14	5334.96
950.30	5214.13
950.47	5355.44
950.63	5216.18
950.80	5382.06
950.96	5222.32
951.13	5341.10
951.30	5201.84
951.46	5359.53
951.63	5459.88
951.79	5377.97
951.96	5343.15
952.12	5392.30
952.29	5361.58
952.45	5267.38
952.62	5429.17
952.78	5353.39
952.94	5396.40
953.11	5244.85
953.27	5175.22
953.44	5435.31
953.60	5300.14
953.77	5433.26
953.93	5404.59
954.10	5416.88
954.26	5515.18
954.43	5476.27
954.59	5343.15
954.76	5375.92
954.92	5265.33
955.09	5482.41
955.25	5326.77
955.42	5439.40
955.58	5502.89
955.75	5511.08
955.91	5345.20
956.07	5410.73
956.24	5302.19
956.40	5437.36
956.57	5595.05
956.73	5375.92
956.90	5556.14
957.06	5189.55
957.23	5347.25
957.39	5423.02
957.56	5586.86
957.72	5271.47
957.88	5377.97
958.05	5453.74
958.21	5517.23
958.38	5582.76
958.54	5423.02
958.71	5535.66
958.87	5482.41
959.03	5447.60
959.20	5523.37
959.36	5339.05
959.53	5388.21
959.69	5324.72
959.85	5474.22
960.02	5302.19
960.18	5429.17
960.35	5593.00
960.51	5425.07
960.68	5400.49
960.84	5277.62
961.00	5423.02
961.17	5420.97
961.33	5484.46
961.50	5402.54
961.66	5500.84
961.82	5279.66
961.99	5375.92
962.15	5326.77
962.31	5386.16
962.48	5382.06
962.64	5441.45
962.81	5308.34
962.97	5328.81
963.13	5402.54
963.30	5296.05
963.46	5414.83
963.62	5312.43
963.79	5267.38
963.95	5377.97
964.12	5212.08
964.28	5287.86
964.44	5224.37
964.61	5480.36
964.77	5377.97
964.93	5494.70
965.10	5525.42
965.26	5246.90
965.42	5207.98
965.59	5072.82
965.75	5390.25
965.92	5173.17
966.08	5367.73
966.24	5255.09
966.41	5228.46
966.57	5283.76
966.73	5367.73
966.90	5248.94
967.06	5324.72
967.22	5130.16
967.39	5246.90
967.55	5119.92
967.71	5101.49
967.88	5214.13
968.04	5085.11
968.20	5111.73
968.37	4974.52
968.53	5099.44
968.69	5066.67
968.85	5203.89
969.02	5156.79
969.18	5175.22
969.34	5310.38
969.51	5021.62
969.67	5148.59
969.83	5093.30
970.00	5070.77
970.16	5027.76
970.32	5103.54
970.48	5162.93
970.65	4917.17
970.81	5066.67
970.97	4982.71
971.14	5009.33
971.30	5124.02
971.46	5001.14
971.63	5021.62
971.79	5115.83
971.95	4863.93
972.11	5048.24
972.28	4851.64
972.44	5076.91
972.60	4911.03
972.76	4939.70
972.93	4943.80
973.09	4890.55
973.25	4931.51
973.42	4923.32
973.58	4939.70
973.74	4984.76
973.90	4943.80
974.07	4755.38
974.23	4788.15
974.39	4820.92
974.55	4724.66
974.72	4876.21
974.88	4650.94
975.04	4739.00
975.20	4689.85
975.37	4822.97
975.53	4804.53
975.69	4761.53
975.85	4765.62
976.01	4700.09
976.18	4640.70
976.34	4802.49
976.50	4816.82
976.66	4964.28
976.83	4747.19
976.99	4607.93
977.15	4677.56
977.31	4634.55
977.47	4790.20
977.64	4532.15
977.80	4501.44
977.96	4673.46
978.12	4669.37
978.29	4599.74
978.45	4509.63
978.61	4364.22
978.77	4657.08
978.93	4612.03
979.10	4528.06
979.26	4552.63
979.42	4478.91
979.58	4483.00
979.74	4396.99
979.91	4464.57
980.07	4392.89
980.23	4401.08
980.39	4456.38
980.55	4351.93
980.71	4315.07
980.88	4306.88
981.04	4374.46
981.20	4388.80
981.36	4399.04
981.52	4353.98
981.68	4173.76
981.85	4384.70
982.01	4337.60
982.17	4321.21
982.33	4411.32
982.49	4401.08
982.65	4294.59
982.82	4304.83
982.98	4179.90
983.14	4206.53
983.30	4298.69
983.46	4362.17
983.62	4192.19
983.79	4149.18
983.95	4120.51
984.11	4083.65
984.27	4231.10
984.43	4274.11
984.59	4118.47
984.75	4255.68
984.91	4206.53
985.08	4173.76
985.24	3997.64
985.40	4091.84
985.56	4143.04
985.72	4077.51
985.88	4179.90
986.04	3952.58
986.20	4024.26
986.37	4044.74
986.53	4016.07
986.69	4034.50
986.85	4011.97
987.01	3975.11
987.17	4122.56
987.33	3911.62
987.49	3983.30
987.65	3946.44
987.82	4016.07
987.98	4026.31
988.14	4028.35
988.30	4044.74
988.46	3901.38
988.62	4001.73
988.78	3942.34
988.94	3854.28
989.10	3850.18
989.26	3870.66
989.42	3811.27
989.59	3885.00
989.75	3887.04
989.91	3930.05
990.07	3803.08
990.23	3682.25
990.39	3755.97
990.55	3813.32
990.71	3710.92
990.87	3747.78
991.03	3774.41
991.19	3674.06
991.35	3803.08
991.51	3841.99
991.67	3764.17
991.83	3706.82
992.00	3723.21
992.16	3837.89
992.32	3721.16
992.48	3622.86
992.64	3674.06
992.80	3725.26
992.96	3733.45
993.12	3573.71
993.28	3729.35
993.44	3698.63
993.60	3721.16
993.76	3641.29
993.92	3563.47
994.08	3657.67
994.24	3712.97
994.40	3639.24
994.56	3577.80
994.72	3526.60
994.88	3596.23
995.04	3606.47
995.20	3479.50
995.36	3477.45
995.52	3583.95
995.68	3626.95
995.84	3413.96
996.00	3585.99
996.16	3450.83
996.32	3471.31
996.48	3416.01
996.64	3528.65
996.80	3508.17
996.96	3516.36
997.12	3430.35
997.28	3418.06
997.44	3362.76
997.60	3436.49
997.76	3497.93
997.92	3436.49
998.08	3354.57
998.24	3393.48
998.40	3444.68
998.56	3440.59
998.72	3256.27
998.88	3346.38
999.04	3379.15
999.20	3409.87
999.36	3368.91
999.52	3442.64
999.68	3256.27
999.84	3325.90
1000.00	3297.23
1000.16	3254.22
1000.32	3155.92
1000.48	3442.64
1000.64	3168.21
1000.80	3162.06
1000.95	3084.24
1001.11	3241.93
1001.27	3104.72
1001.43	3235.79
1001.59	3164.11
1001.75	3157.97
1001.91	3176.40
1002.07	3100.62
1002.23	3112.91
1002.39	3145.68
1002.55	3131.34
1002.71	3092.43
1002.87	3168.21
1003.03	3096.53
1003.19	3063.76
1003.34	3172.30
1003.50	3162.06
1003.66	3176.40
1003.82	3121.10
1003.98	3043.28
1004.14	2998.23
1004.30	2967.51
1004.46	3076.05
1004.62	3059.67
1004.78	2992.08
1004.94	2981.84
1005.09	3147.73
1005.25	3080.14
1005.41	3014.61
1005.57	2992.08
1005.73	2947.03
1005.89	3016.66
1006.05	3057.62
1006.21	3055.57
1006.37	2938.84
1006.52	2969.55
1006.68	2787.29
1006.84	3012.56
1007.00	2912.21
1007.16	3020.75
1007.32	2785.24
1007.48	2969.55
1007.64	2912.21
1007.79	2818.00
1007.95	2861.01
1008.11	2920.40
1008.27	2910.16
1008.43	2920.40
1008.59	2867.16
1008.75	2940.88
1008.91	2916.31
1009.06	2748.37
1009.22	2764.76
1009.38	2830.29
1009.54	2908.12
1009.70	2678.74
1009.86	2764.76
1010.01	2854.87
1010.17	2680.79
1010.33	2748.37
1010.49	2674.65
1010.65	2852.82
1010.81	2703.32
1010.96	2684.89
1011.12	2699.22
1011.28	2648.02
1011.44	2676.70
1011.60	2801.62
1011.76	2705.37
1011.91	2828.24
1012.07	2605.02
1012.23	2672.60
1012.39	2662.36
1012.55	2742.23
1012.71	2574.30
1012.86	2592.73
1013.02	2625.50
1013.18	2633.69
1013.34	2619.35
1013.50	2631.64
1013.65	2768.85
1013.81	2584.54
1013.97	2652.12
1014.13	2670.55
1014.29	2602.97
1014.44	2711.51
1014.60	2445.27
1014.76	2641.88
1014.92	2645.98
1015.07	2574.30
1015.23	2639.83
1015.39	2582.49
1015.55	2566.10
1015.71	2572.25
1015.86	2609.11
1016.02	2545.63
1016.18	2482.14
1016.34	2543.58
1016.49	2496.47
1016.65	2535.39
1016.81	2437.08
1016.97	2562.01
1017.12	2494.43
1017.28	2533.34
1017.44	2351.07
1017.60	2478.04
1017.75	2473.95
1017.91	2404.32
1018.07	2492.38
1018.23	2480.09
1018.38	2336.73
1018.54	2453.47
1018.70	2463.71
1018.86	2424.80
1019.01	2482.14
1019.17	2439.13
1019.33	2574.30
1019.49	2471.90
1019.64	2404.32
1019.80	2549.72
1019.96	2400.22
1020.12	2498.52
1020.27	2332.64
1020.43	2396.12
1020.59	2400.22
1020.74	2432.99
1020.90	2494.43
1021.06	2367.45
1021.22	2340.83
1021.37	2377.69
1021.53	2353.12
1021.69	2404.32
1021.84	2191.33
1022.00	2344.92
1022.16	2369.50
1022.31	2324.44
1022.47	2385.88
1022.63	2326.49
1022.79	2189.28
1022.94	2289.63
1023.10	2357.21
1023.26	2297.82
1023.41	2271.20
1023.57	2301.92
1023.73	2338.78
1023.88	2181.09
1024.04	2179.04
1024.20	2306.01
1024.35	2258.91
1024.51	2283.49
1024.67	2215.90
1024.82	2287.58
1024.98	2207.71
1025.14	2224.09
1025.29	2203.61
1025.45	2271.20
1025.61	2170.85
1025.76	2240.48
1025.92	2228.19
1026.08	2230.24
1026.23	2246.62
1026.39	2215.90
1026.55	2228.19
1026.70	2142.18
1026.86	2187.23
1027.02	2199.52
1027.17	2213.85
1027.33	2215.90
1027.48	2144.22
1027.64	2152.42
1027.80	2107.36
1027.95	2283.49
1028.11	2052.06
1028.27	2187.23
1028.42	2187.23
1028.58	2103.26
1028.73	2074.59
1028.89	2142.18
1029.05	2181.09
1029.20	2162.66
>>>>>End Processed Spectral Data<<<<<
