SpectraSuite Data File
++++++++++++++++++++++++++++++++++++
Date: Fri Jun 02 14:44:38 CEST 2017
User: INFO_000
Dark Spectrum Present: No
Reference Spectrum Present: No
Number of Sampled Component Spectra: 1
Spectrometers: USB4H00879
Integration Time (usec): 80000 (USB4H00879)
Spectra Averaged: 1 (USB4H00879)
Boxcar Smoothing: 0 (USB4H00879)
Correct for Electrical Dark: No (USB4H00879)
Strobe/Lamp Enabled: No (USB4H00879)
Correct for Detector Non-linearity: No (USB4H00879)
Correct for Stray Light: No (USB4H00879)
Number of Pixels in Processed Spectrum: 3648
>>>>>Begin Processed Spectral Data<<<<<
345.13	1236.97
345.34	1236.97
345.56	1236.97
345.78	1247.21
345.99	1216.49
346.21	1730.53
346.42	1675.24
346.64	1654.76
346.86	1791.97
347.07	1628.14
347.29	1648.61
347.50	1531.88
347.72	1648.61
347.94	1728.49
348.15	1624.04
348.37	1576.94
348.59	1757.16
348.80	1568.74
349.02	1742.82
349.23	1853.41
349.45	1796.07
349.67	1888.23
349.88	1818.60
350.10	1916.90
350.31	1857.51
350.53	1818.60
350.75	1927.14
350.96	1759.21
351.18	1884.13
351.39	1828.84
351.61	1824.74
351.82	1902.56
352.04	1900.52
352.26	1890.28
352.47	1947.62
352.69	1933.28
352.90	1665.00
353.12	1794.02
353.34	1882.08
353.55	1947.62
353.77	1847.27
353.98	1839.08
354.20	1865.70
354.41	1918.95
354.63	1994.72
354.85	2000.87
355.06	1865.70
355.28	1859.56
355.49	1927.14
355.71	1910.75
355.92	1828.84
356.14	1847.27
356.35	1816.55
356.57	1845.22
356.79	2007.01
357.00	1900.52
357.22	1933.28
357.43	1939.43
357.65	2029.54
357.86	1877.99
358.08	1781.73
358.29	1961.95
358.51	1912.80
358.72	1978.34
358.94	1914.85
359.16	2000.87
359.37	2011.11
359.59	2007.01
359.80	2084.83
360.02	1892.32
360.23	1994.72
360.45	2031.58
360.66	1964.00
360.88	1943.52
361.09	1904.61
361.31	1961.95
361.52	1920.99
361.74	1966.05
361.95	2123.74
362.17	1908.71
362.38	2050.02
362.60	2007.01
362.81	1974.24
363.03	1912.80
363.24	1980.39
363.46	2060.26
363.67	2047.97
363.89	1978.34
364.10	2093.02
364.32	1945.57
364.53	2148.32
364.75	1880.04
364.96	1982.43
365.18	2035.68
365.39	2039.78
365.61	1927.14
365.82	2070.50
366.04	1988.58
366.25	1935.33
366.47	2013.15
366.68	2033.63
366.90	1964.00
367.11	2074.59
367.33	2152.42
367.54	2023.39
367.76	1966.05
367.97	2019.30
368.19	2027.49
368.40	2074.59
368.62	1961.95
368.83	1996.77
369.05	2039.78
369.26	1918.95
369.48	2066.40
369.69	2015.20
369.91	2052.06
370.12	2035.68
370.33	2133.98
370.55	2011.11
370.76	2070.50
370.98	2090.98
371.19	2013.15
371.41	2052.06
371.62	2056.16
371.84	2015.20
372.05	2158.56
372.27	2078.69
372.48	2123.74
372.69	2066.40
372.91	2138.08
373.12	2172.89
373.34	2084.83
373.55	2113.50
373.77	2191.33
373.98	2115.55
374.20	2136.03
374.41	2240.48
374.62	2166.75
374.84	2133.98
375.05	2263.01
375.27	2191.33
375.48	2209.76
375.70	2179.04
375.91	2174.94
376.12	2285.53
376.34	2166.75
376.55	2117.60
376.77	2172.89
376.98	2158.56
377.19	2090.98
377.41	2172.89
377.62	2191.33
377.84	2265.05
378.05	2318.30
378.27	2230.24
378.48	2295.77
378.69	2273.25
378.91	2271.20
379.12	2224.09
379.34	2250.72
379.55	2359.26
379.76	2248.67
379.98	2213.85
380.19	2306.01
380.41	2281.44
380.62	2363.36
380.83	2252.77
381.05	2238.43
381.26	2383.84
381.47	2230.24
381.69	2224.09
381.90	2394.08
382.12	2312.16
382.33	2256.86
382.54	2252.77
382.76	2291.68
382.97	2312.16
383.19	2289.63
383.40	2340.83
383.61	2291.68
383.83	2256.86
384.04	2263.01
384.25	2344.92
384.47	2396.12
384.68	2426.84
384.89	2394.08
385.11	2324.44
385.32	2377.69
385.54	2260.96
385.75	2336.73
385.96	2494.43
386.18	2428.89
386.39	2500.57
386.60	2396.12
386.82	2471.90
387.03	2400.22
387.24	2553.82
387.46	2478.04
387.67	2555.86
387.88	2516.95
388.10	2453.47
388.31	2455.51
388.52	2525.15
388.74	2576.34
388.95	2504.67
389.16	2621.40
389.38	2519.00
389.59	2607.06
389.80	2584.54
390.02	2502.62
390.23	2541.53
390.44	2506.71
390.66	2578.39
390.87	2496.47
391.08	2586.58
391.30	2746.33
391.51	2629.59
391.72	2641.88
391.94	2695.13
392.15	2615.26
392.36	2557.91
392.58	2656.22
392.79	2662.36
393.00	2621.40
393.22	2664.41
393.43	2789.33
393.64	2824.15
393.85	2867.16
394.07	2607.06
394.28	2668.50
394.49	2779.09
394.71	2709.46
394.92	2906.07
395.13	2617.30
395.35	2772.95
395.56	2768.85
395.77	2795.48
395.98	2789.33
396.20	2926.55
396.41	2756.57
396.62	2916.31
396.84	2838.48
397.05	2797.53
397.26	2818.00
397.47	2961.36
397.69	2820.05
397.90	3065.81
398.11	2834.39
398.32	2762.71
398.54	2885.59
398.75	2895.83
398.96	2867.16
399.18	3030.99
399.39	3061.71
399.60	3000.27
399.81	2899.92
400.03	2840.53
400.24	3336.14
400.45	2920.40
400.66	3012.56
400.88	3057.62
401.09	3119.06
401.30	3051.47
401.51	3135.44
401.73	3039.19
401.94	3172.30
402.15	3237.84
402.36	3108.82
402.58	3284.94
402.79	3184.59
403.00	3164.11
403.21	3149.78
403.43	3166.16
403.64	3174.35
403.85	3000.27
404.06	3252.17
404.27	3082.19
404.49	3278.80
404.70	3286.99
404.91	3289.04
405.12	3254.22
405.34	3241.93
405.55	3413.96
405.76	3186.64
405.97	3256.27
406.19	3438.54
406.40	3243.98
406.61	3325.90
406.82	3348.43
407.03	3317.71
407.25	3276.75
407.46	3489.74
407.67	3452.88
407.88	3522.51
408.09	3360.72
408.31	3426.25
408.52	3508.17
408.73	3360.72
408.94	3473.36
409.15	3459.02
409.37	3540.94
409.58	3510.22
409.79	3504.07
410.00	3606.47
410.21	3540.94
410.43	3465.16
410.64	3563.47
410.85	3530.70
411.06	3567.56
411.27	3524.55
411.48	3672.01
411.70	3581.90
411.91	3567.56
412.12	3612.62
412.33	3598.28
412.54	3616.71
412.76	3723.21
412.97	3569.61
413.18	3678.15
413.39	3669.96
413.60	3762.12
413.81	3702.73
414.03	3665.86
414.24	3649.48
414.45	3905.48
414.66	3655.62
414.87	3723.21
415.08	3813.32
415.30	3682.25
415.51	3788.74
415.72	3909.57
415.93	3809.22
416.14	3848.13
416.35	3831.75
416.56	3831.75
416.78	3772.36
416.99	3934.15
417.20	3805.13
417.41	3805.13
417.62	3897.28
417.83	4016.07
418.04	3911.62
418.26	3925.96
418.47	3876.80
418.68	4065.22
418.89	3971.01
419.10	4169.66
419.31	4018.11
419.52	4087.75
419.73	3979.20
419.95	4134.85
420.16	3966.92
420.37	4087.75
420.58	4274.11
420.79	3991.49
421.00	4122.56
421.21	4145.09
421.42	4073.41
421.63	4089.79
421.85	4202.43
422.06	4153.28
422.27	4151.23
422.48	4239.30
422.69	4243.39
422.90	4196.29
423.11	4231.10
423.32	4288.45
423.53	4440.00
423.75	4386.75
423.96	4581.31
424.17	4450.24
424.38	4386.75
424.59	4407.23
424.80	4503.48
425.01	4444.09
425.22	4562.87
425.43	4427.71
425.64	4667.32
425.85	4648.89
426.06	4554.68
426.28	4571.07
426.49	4427.71
426.70	4376.51
426.91	4548.54
427.12	4695.99
427.33	4800.44
427.54	4554.68
427.75	4599.74
427.96	4857.78
428.17	4607.93
428.38	4861.88
428.59	4751.29
428.80	4743.10
429.01	4677.56
429.23	4818.87
429.44	4886.45
429.65	4941.75
429.86	4911.03
430.07	4882.36
430.28	4804.53
430.49	4878.26
430.70	5066.67
430.91	5070.77
431.12	5068.72
431.33	5148.59
431.54	5152.69
431.75	5171.12
431.96	5162.93
432.17	5113.78
432.38	5152.69
432.59	5277.62
432.80	5238.70
433.01	5226.42
433.22	5224.37
433.43	5228.46
433.64	5255.09
433.85	5298.10
434.06	5357.49
434.27	5294.00
434.49	5400.49
434.70	5425.07
434.91	5433.26
435.12	5523.37
435.33	5392.30
435.54	5496.75
435.75	5392.30
435.96	5498.80
436.17	5341.10
436.38	5636.01
436.59	5638.06
436.80	5672.87
437.01	5808.04
437.22	5701.54
437.43	5572.52
437.64	5683.11
437.85	5801.90
438.06	5881.77
438.27	5765.03
438.48	5801.90
438.69	5801.90
438.90	5820.33
439.11	5789.61
439.32	5996.45
439.53	5846.95
439.74	5957.54
439.95	5947.30
440.16	5998.50
440.37	6051.75
440.57	5736.36
440.78	6012.84
440.99	5988.26
441.20	6070.18
441.41	6068.13
441.62	6076.32
441.83	6076.32
442.04	6229.92
442.25	6176.67
442.46	6174.63
442.67	6188.96
442.88	6627.23
443.09	6162.34
443.30	6197.15
443.51	6389.66
443.72	6567.84
443.93	6309.79
444.14	6584.22
444.35	6240.16
444.56	6408.09
444.77	6412.19
444.98	6541.21
445.19	6543.26
445.40	6467.49
445.61	6399.90
445.81	6567.84
446.02	6598.56
446.23	6530.97
446.44	6397.85
446.65	6625.18
446.86	6596.51
447.07	6582.17
447.28	6768.54
447.49	6889.37
447.70	6692.76
447.91	6768.54
448.12	6868.89
448.33	6897.56
448.54	6786.97
448.74	6784.92
448.95	6825.88
449.16	6760.34
449.37	7083.92
449.58	6877.08
449.79	7010.20
450.00	6973.33
450.21	7165.84
450.42	7100.31
450.63	7214.99
450.84	7106.45
451.05	7057.30
451.25	7106.45
451.46	6795.16
451.67	7176.08
451.88	7198.61
452.09	7280.53
452.30	6991.77
452.51	7384.98
452.72	7442.32
452.93	7397.26
453.13	7190.42
453.34	7106.45
453.55	7405.46
453.76	7276.43
453.97	7724.94
454.18	7335.82
454.39	7579.53
454.60	7487.37
454.81	7606.16
455.01	7731.08
455.22	7468.94
455.43	7499.66
455.64	7802.76
455.85	7917.45
456.06	8071.04
456.27	7735.18
456.48	7735.18
456.68	7759.75
456.89	7780.23
457.10	7962.50
457.31	7950.21
457.52	8011.65
457.73	8025.99
457.94	8191.88
458.14	7894.92
458.35	8296.32
458.56	8198.02
458.77	8265.60
458.98	8304.51
459.19	8234.88
459.39	8243.07
459.60	8374.14
459.81	8372.10
460.02	8533.89
460.23	8384.38
460.44	8683.39
460.65	8660.86
460.85	8580.99
461.06	8646.52
461.27	8380.29
461.48	8914.81
461.69	8937.34
461.89	8748.92
462.10	8855.42
462.31	8779.64
462.52	8822.65
462.73	8916.86
462.94	9256.82
463.14	9054.07
463.35	9078.65
463.56	9422.70
463.77	9416.56
463.98	9154.42
464.18	9267.06
464.39	9496.43
464.60	9422.70
464.81	9709.42
465.02	9488.24
465.23	9793.39
465.43	9633.64
465.64	9989.99
465.85	9750.38
466.06	9611.12
466.27	10116.97
466.47	10051.43
466.68	10178.40
466.89	9852.78
467.10	10055.53
467.30	9826.15
467.51	10334.05
467.72	10346.34
467.93	10172.26
468.14	10479.46
468.34	10479.46
468.55	10520.42
468.76	10555.23
468.97	10544.99
469.17	10819.42
469.38	10813.28
469.59	11054.94
469.80	10862.43
470.01	10899.29
470.21	11042.65
470.42	11186.01
470.63	11290.45
470.84	11134.81
471.04	11339.60
471.25	11495.25
471.46	11251.54
471.67	11659.09
471.87	11587.41
472.08	11689.81
472.29	11849.55
472.50	11591.50
472.70	11802.44
472.91	11929.42
473.12	12083.02
473.33	12162.89
473.53	12447.55
473.74	12156.74
473.95	12504.90
474.16	12408.64
474.36	12519.23
474.57	12764.99
474.78	12740.41
474.99	12863.29
475.19	12609.34
475.40	13070.14
475.61	13227.83
475.81	13313.84
476.02	13430.58
476.23	13383.48
476.44	13575.98
476.64	13776.69
476.85	14008.11
477.06	13846.32
477.27	13979.43
477.47	13950.76
477.68	13928.24
477.89	14149.42
478.09	14272.29
478.30	14096.17
478.51	14593.83
478.71	14591.78
478.92	14649.12
479.13	14577.44
479.34	15060.76
479.54	14964.51
479.75	14946.08
479.96	15167.26
480.16	14909.21
480.37	15234.84
480.58	15400.72
480.78	15456.02
480.99	15306.52
481.20	15630.10
481.41	15529.75
481.61	15816.46
481.82	15750.93
482.03	15986.44
482.23	15845.13
482.44	16133.90
482.65	16537.35
482.85	16408.33
483.06	16146.19
483.27	16510.72
483.47	16502.53
483.68	16682.75
483.89	16856.83
484.09	16584.45
484.30	16948.99
484.51	17020.67
484.71	17225.47
484.92	16948.99
485.13	17420.02
485.33	17245.94
485.54	17141.50
485.75	17411.83
485.95	17665.78
486.16	17786.61
486.37	17712.88
486.57	17694.45
486.78	17692.40
486.98	18050.80
487.19	17786.61
487.40	18089.71
487.60	18433.77
487.81	18370.28
488.02	18222.83
488.22	18378.47
488.43	18814.69
488.64	18677.48
488.84	18702.05
489.05	18618.08
489.25	18613.99
489.46	18896.61
489.67	18855.65
489.87	19144.41
490.08	19308.25
490.29	19203.80
490.49	19599.06
490.70	19496.66
490.90	19697.36
491.11	19752.66
491.32	19439.32
491.52	19644.12
491.73	19584.73
491.94	19814.10
492.14	19830.48
492.35	20031.18
492.55	20168.40
492.76	20348.62
492.97	20283.08
493.17	20391.62
493.38	20491.98
493.58	20549.32
493.79	20848.32
494.00	20463.30
494.20	20797.12
494.41	20821.70
494.61	20995.78
494.82	21055.17
495.02	21192.38
495.23	21204.67
495.44	20991.68
495.64	21407.42
495.85	21558.97
496.05	21489.34
496.26	21376.70
496.47	21857.97
496.67	21569.21
496.88	21954.22
497.08	21759.67
497.29	22040.24
497.49	21978.80
497.70	22281.90
497.91	22183.60
498.11	22400.68
498.32	22556.33
498.52	22498.98
498.73	22922.91
498.93	22574.76
499.14	22476.46
499.34	22802.08
499.55	22996.64
499.76	22677.16
499.96	23158.43
500.17	22816.42
500.37	23105.18
500.58	22834.85
500.78	22984.35
500.99	23344.80
501.19	23635.61
501.40	23658.14
501.60	23387.80
501.81	23426.71
502.02	23338.65
502.22	23455.39
502.43	23854.74
502.63	24057.49
502.84	24088.21
503.04	23762.58
503.25	23869.08
503.45	24129.17
503.66	24327.82
503.86	24327.82
504.07	24432.27
504.27	24379.02
504.48	24702.60
504.68	24536.71
504.89	24905.35
505.09	24903.30
505.30	24622.73
505.50	24929.92
505.71	24927.88
505.91	24893.06
506.12	24962.69
506.32	25001.60
506.53	25405.05
506.73	25599.61
506.94	25310.85
507.14	25577.08
507.35	25572.99
507.55	25671.29
507.76	25833.08
507.96	25988.72
508.17	25796.21
508.37	25810.55
508.58	25857.65
508.78	25943.67
508.99	26574.44
509.19	26160.75
509.40	26412.65
509.60	26300.01
509.81	26596.97
510.01	26216.05
510.22	26433.13
510.42	26560.11
510.63	26330.73
510.83	26848.87
511.04	26758.76
511.24	27094.63
511.44	26744.42
511.65	26805.86
511.85	27127.39
512.06	27104.87
512.26	27176.55
512.47	27237.98
512.67	26932.84
512.88	27455.07
513.08	27364.96
513.29	27559.52
513.49	27395.68
513.69	27924.05
513.90	27704.92
514.10	27862.61
514.31	27844.18
514.51	27948.63
514.72	27969.11
514.92	27905.62
515.13	27602.52
515.33	28423.76
515.53	28218.96
515.74	28409.42
515.94	28546.64
516.15	28268.11
516.35	28329.55
516.56	28585.55
516.76	28589.64
516.96	28610.12
517.17	28819.02
517.37	28794.44
517.58	28743.24
517.78	28931.65
517.99	28841.54
518.19	29068.87
518.39	29120.07
518.60	29433.41
518.80	28989.00
519.01	29466.17
519.21	29314.62
519.41	29511.23
519.62	29316.67
519.82	29601.34
520.03	29883.96
520.23	29736.51
520.43	29408.83
520.64	29898.30
520.84	30371.38
521.05	29972.02
521.25	30172.72
521.45	30520.88
521.66	30053.94
521.86	30314.03
522.07	30168.63
522.27	30658.09
522.47	30543.41
522.68	30883.37
522.88	30338.61
523.08	30715.44
523.29	30844.46
523.49	30967.34
523.70	30703.15
523.90	31159.84
524.10	30903.85
524.31	31290.91
524.51	31018.53
524.71	31594.01
524.92	31163.94
525.12	31602.21
525.33	31565.34
525.53	31706.65
525.73	32167.45
525.94	32019.99
526.14	31929.88
526.34	32181.78
526.55	31714.84
526.75	31831.58
526.95	32341.52
527.16	32157.21
527.36	32175.64
527.56	32308.76
527.77	32046.62
527.97	32519.70
528.17	32665.10
528.38	32871.95
528.58	32626.19
528.78	32826.89
528.99	32837.13
529.19	33043.98
529.39	32536.08
529.60	33218.05
529.80	33207.81
530.00	33084.94
530.21	33162.76
530.41	33781.24
530.61	33377.79
530.82	33396.23
531.02	33756.67
531.22	33519.10
531.43	33887.74
531.63	33852.92
531.83	33926.65
532.04	34221.56
532.24	33695.23
532.44	34526.71
532.64	34381.30
532.85	34317.81
533.05	34313.72
533.25	34508.27
533.46	34358.77
533.66	34850.28
533.86	34522.61
534.07	34756.08
534.27	34940.39
534.47	35165.67
534.67	35192.30
534.88	34680.30
535.08	35028.46
535.28	35343.84
535.49	35218.92
535.69	35554.79
535.89	35403.24
536.09	35374.56
536.30	35870.17
536.50	35718.62
536.70	35698.14
536.91	35874.27
537.11	36156.89
537.31	35849.69
537.51	35909.08
537.72	36124.12
537.92	36273.62
538.12	36541.91
538.32	36165.08
538.53	36550.10
538.73	36212.18
538.93	36193.75
539.13	36402.64
539.34	36609.49
539.54	36253.14
539.74	37006.80
539.94	36822.48
540.15	36763.09
540.35	37006.80
540.55	37195.21
540.75	36857.29
540.96	37412.29
541.16	37090.76
541.36	37623.23
541.56	37236.17
541.77	37572.03
541.97	37430.72
542.17	37664.19
542.37	37309.89
542.58	37598.66
542.78	37815.74
542.98	37656.00
543.18	37930.43
543.38	38323.64
543.59	38303.16
543.79	37733.82
543.99	38176.19
544.19	38251.96
544.40	38356.41
544.60	38720.95
544.80	38647.22
545.00	38329.78
545.20	38854.06
545.41	38452.66
545.61	38243.77
545.81	38731.18
546.01	38968.75
546.21	38938.03
546.42	38960.56
546.62	39138.73
546.82	38903.21
547.02	39321.00
547.22	39146.92
547.43	39183.79
547.63	39366.06
547.83	39429.54
548.03	39257.51
548.23	39855.52
548.44	39585.19
548.64	39423.40
548.84	39742.88
549.04	39966.11
549.24	39904.67
549.45	40129.95
549.65	39900.58
549.85	39810.46
550.05	40129.95
550.25	39998.88
550.45	40916.37
550.66	40451.48
550.86	40316.31
551.06	40490.39
551.26	40564.12
551.46	40891.79
551.66	40531.35
551.87	40899.98
552.07	41043.34
552.27	40861.07
552.47	40656.28
552.67	41303.43
552.87	41260.43
553.07	41072.01
553.28	41313.67
553.48	41362.82
553.68	41348.49
553.88	41721.22
554.08	41350.54
554.28	41305.48
554.48	41448.84
554.69	41803.14
554.89	41305.48
555.09	41561.48
555.29	41737.60
555.49	41850.24
555.69	41895.30
555.89	41719.17
556.10	42149.24
556.30	42065.28
556.50	42069.37
556.70	42028.41
556.90	42362.23
557.10	42429.82
557.30	42179.96
557.50	42528.12
557.70	42597.75
557.91	42728.82
558.11	42689.91
558.31	43195.76
558.51	42988.91
558.71	42675.57
558.91	43103.60
559.11	43210.09
559.31	42823.03
559.51	42820.98
559.72	42906.99
559.92	43423.08
560.12	43349.35
560.32	43464.04
560.52	43224.43
560.72	43281.77
560.92	43130.22
561.12	43388.27
561.32	43980.13
561.52	43201.90
561.72	44184.93
561.93	43545.96
562.13	44084.58
562.33	43746.66
562.53	44098.91
562.73	43787.62
562.93	43949.41
563.13	44146.01
563.33	44135.77
563.53	44414.30
563.73	43810.15
563.93	44477.79
564.13	44774.74
564.33	44277.08
564.53	44438.87
564.74	44608.86
564.94	44170.59
565.14	44485.98
565.34	44643.67
565.54	44909.91
565.74	45102.42
565.94	45272.40
566.14	44844.37
566.34	44707.16
566.54	44838.23
566.74	44950.87
566.94	45098.32
567.14	44954.96
567.34	44991.83
567.54	45040.98
567.74	44778.84
567.94	44901.71
568.14	45247.82
568.34	45747.53
568.54	45331.79
568.74	45376.84
568.94	45471.05
569.14	45987.14
569.34	45737.29
569.54	45659.46
569.75	45464.91
569.95	45739.33
570.15	45901.12
570.35	45917.51
570.55	45483.34
570.75	45524.30
570.95	45555.02
571.15	45991.23
571.35	45819.20
571.55	46173.50
571.75	45974.85
571.95	46259.52
572.15	45841.73
572.35	46200.13
572.55	46175.55
572.75	46040.39
572.95	46300.48
573.15	46325.05
573.35	46560.57
573.55	46239.04
573.75	46380.35
573.95	46746.93
574.15	46386.49
574.35	46771.51
574.55	46550.33
574.75	46722.36
574.95	46398.78
575.15	46601.53
575.34	46507.32
575.54	46828.85
575.74	46650.68
575.94	46931.25
576.14	46632.25
576.34	46937.40
576.54	47115.57
576.74	46839.09
576.94	46505.27
577.14	47363.37
577.34	47289.65
577.54	46832.95
577.74	47514.92
577.94	47351.09
578.14	47451.44
578.34	47832.36
578.54	47037.75
578.74	47224.11
578.94	47469.87
579.14	47441.20
579.34	47191.34
579.54	47613.23
579.74	47838.50
579.94	47672.62
580.13	47945.00
580.33	47844.65
580.53	48071.97
580.73	48342.30
580.93	48020.77
581.13	47838.50
581.33	47897.89
581.53	48053.54
581.73	48035.11
581.93	47985.96
582.13	48149.79
582.33	47832.36
582.53	48014.63
582.73	48215.33
582.92	47924.52
583.12	48362.78
583.32	47940.90
583.52	47842.60
583.72	48262.43
583.92	48313.63
584.12	48233.76
584.32	48612.63
584.52	48659.74
584.72	48203.04
584.92	48377.12
585.11	49163.54
585.31	48665.88
585.51	48745.75
585.71	48309.53
585.91	48919.83
586.11	48721.18
586.31	48676.12
586.51	48901.40
586.71	48780.57
586.91	49089.81
587.10	48446.75
587.30	48682.27
587.50	48837.91
587.70	49057.04
587.90	48758.04
588.10	49222.93
588.30	49267.98
588.50	49171.73
588.69	49263.89
588.89	48876.82
589.09	49300.75
589.29	49165.59
589.49	49532.17
589.69	48921.88
589.89	49540.36
590.08	49147.15
590.28	49204.50
590.48	49161.49
590.68	49030.42
590.88	49050.90
591.08	49505.55
591.28	49210.64
591.47	49851.66
591.67	49259.79
591.87	49626.38
592.07	49607.95
592.27	49644.81
592.47	49804.55
592.67	49149.20
592.86	49333.52
593.06	49696.01
593.26	50136.32
593.46	49677.58
593.66	49386.77
593.86	49759.50
594.05	49741.06
594.25	50181.38
594.45	49990.92
594.65	49986.82
594.85	49591.56
595.05	50248.96
595.24	50369.79
595.44	49978.63
595.64	50152.71
595.84	50246.91
596.04	50511.10
596.23	50271.49
596.43	50650.36
596.63	50580.73
596.83	50021.64
597.03	50601.21
597.22	50713.85
597.42	50676.99
597.62	50935.03
597.82	50525.44
598.02	51121.40
598.21	51236.08
598.41	50218.24
598.61	51062.00
598.81	50996.47
599.01	50961.65
599.20	50887.93
599.40	50758.91
599.60	51098.87
599.80	51047.67
600.00	51111.16
600.19	51012.85
600.39	51168.50
600.59	51254.51
600.79	51131.64
600.98	51266.80
601.18	51229.94
601.38	51533.04
601.58	51801.32
601.78	51893.48
601.97	51494.13
602.17	51694.83
602.37	51827.95
602.57	51862.76
602.76	52071.65
602.96	51414.26
603.16	52227.30
603.36	51707.12
603.55	52573.41
603.75	52131.04
603.95	52569.31
604.15	52352.23
604.34	52122.85
604.54	52425.95
604.74	52514.01
604.94	52487.39
605.13	52872.41
605.33	53056.73
605.53	52522.21
605.73	52870.36
605.92	52507.87
606.12	52837.59
606.32	52597.98
606.52	52958.42
606.71	52997.34
606.91	53288.15
607.11	52837.59
607.30	53208.28
607.50	53257.43
607.70	53568.72
607.90	53517.52
608.09	53204.18
608.29	53384.40
608.49	53310.67
608.68	53236.95
608.88	53355.73
609.08	53488.85
609.28	53615.82
609.47	53572.81
609.67	54060.23
609.87	53712.08
610.06	54310.08
610.26	54039.75
610.46	54107.33
610.66	54129.86
610.85	54389.95
611.05	53662.93
611.25	54432.96
611.44	53957.83
611.64	54172.87
611.84	54101.19
612.03	54043.85
612.23	54244.55
612.43	54136.01
612.62	54027.46
612.82	54705.34
613.02	54598.85
613.21	54525.12
613.41	54652.09
613.61	54744.25
613.80	54197.44
614.00	54607.04
614.20	54676.67
614.39	54490.30
614.59	54531.26
614.79	54809.79
614.98	54838.46
615.18	54846.65
615.38	55043.26
615.57	54654.14
615.77	55289.01
615.97	54697.15
616.16	55239.86
616.36	54791.36
616.56	55112.89
616.75	54844.60
616.95	54785.21
617.15	54922.43
617.34	55221.43
617.54	55291.06
617.74	55123.13
617.93	55489.71
618.13	54770.88
618.32	55293.11
618.52	55082.17
618.72	55030.97
618.91	55401.65
619.11	55116.98
619.31	55393.46
619.50	55086.26
619.70	55055.54
619.90	55082.17
620.09	55497.91
620.29	55692.46
620.48	55489.71
620.68	55583.92
620.88	55235.77
621.07	55483.57
621.27	55674.03
621.46	55018.68
621.66	55458.99
621.86	55721.13
622.05	54899.90
622.25	55997.61
622.44	55491.76
622.64	55198.90
622.84	55721.13
623.03	55641.26
623.23	55547.06
623.42	55702.70
623.62	55772.33
623.82	56026.28
624.01	55305.40
624.21	55981.23
624.40	55542.96
624.60	55602.35
624.80	55598.26
624.99	55438.51
625.19	55252.15
625.38	55391.41
625.58	55708.85
625.77	55844.01
625.97	55760.05
626.17	55944.36
626.36	55776.43
626.56	55989.42
626.75	55567.54
626.95	56124.58
627.14	55678.13
627.34	56102.06
627.54	55547.06
627.73	55948.46
627.93	56112.30
628.12	56087.72
628.32	56302.76
628.51	55958.70
628.71	56075.43
628.90	55985.32
629.10	56159.40
629.30	55581.87
629.49	55948.46
629.69	55993.51
629.88	55948.46
630.08	56495.27
630.27	55940.27
630.47	56190.12
630.66	56009.90
630.86	56337.57
631.05	55889.07
631.25	56433.83
631.44	56829.08
631.64	56183.97
631.84	56546.47
632.03	56741.02
632.23	56519.84
632.42	56603.81
632.62	56177.83
632.81	56136.87
633.01	56562.85
633.20	56349.86
633.40	56820.89
633.59	56253.61
633.79	55700.65
633.98	56276.13
634.18	56579.23
634.37	56226.98
634.57	56597.66
634.76	56657.06
634.96	56341.67
635.15	56452.26
635.35	56616.10
635.54	56118.44
635.74	56661.15
635.93	56620.19
636.13	56501.41
636.32	56609.95
636.52	55708.85
636.71	56491.17
636.91	56642.72
637.10	56063.14
637.30	56161.45
637.49	56796.32
637.69	56280.23
637.88	57048.22
638.08	56337.57
638.27	56456.35
638.46	56353.96
638.66	56462.50
638.85	56476.83
639.05	56612.00
639.24	56708.25
639.44	56208.55
639.63	56401.06
639.83	56460.45
640.02	56267.94
640.22	56308.90
640.41	56554.66
640.61	56108.20
640.80	56497.31
640.99	55968.94
641.19	56781.98
641.38	56665.25
641.58	56237.22
641.77	56503.46
641.97	56349.86
642.16	56298.66
642.36	57056.41
642.55	56751.26
642.74	55735.47
642.94	56956.06
643.13	56202.41
643.33	56360.10
643.52	56450.21
643.72	56726.69
643.91	56622.24
644.10	56702.11
644.30	56685.73
644.49	56472.74
644.69	56859.80
644.88	56548.51
645.08	56464.55
645.27	56220.84
645.46	56521.89
645.66	56507.55
645.85	56515.75
646.05	56351.91
646.24	56534.18
646.43	56300.71
646.63	56759.45
646.82	56018.09
647.02	56292.52
647.21	56439.97
647.40	56100.01
647.60	56413.35
647.79	56612.00
647.99	56034.47
648.18	56155.30
648.37	56970.39
648.57	56517.79
648.76	56874.14
648.96	56276.13
649.15	56921.24
649.34	56808.61
649.54	56165.54
649.73	56497.31
649.92	56472.74
650.12	56456.35
650.31	56485.03
650.51	56427.68
650.70	56704.16
650.89	56431.78
651.09	57050.27
651.28	56513.70
651.47	56564.90
651.67	56542.37
651.86	56734.88
652.06	55823.53
652.25	56571.04
652.44	56294.56
652.64	56771.74
652.83	56267.94
653.02	56179.88
653.22	56313.00
653.41	56306.85
653.60	56054.95
653.80	56161.45
653.99	56124.58
654.18	56255.65
654.38	56159.40
654.57	56364.20
654.76	55948.46
654.96	55637.17
655.15	55852.20
655.34	56259.75
655.54	56212.65
655.73	56177.83
655.92	56390.82
656.12	56349.86
656.31	56183.97
656.50	55833.77
656.70	56530.08
656.89	56013.99
657.08	56069.29
657.28	56063.14
657.47	55817.39
657.66	56368.29
657.86	56280.23
658.05	55919.79
658.24	56235.17
658.43	55940.27
658.63	56147.11
658.82	56013.99
659.01	56513.70
659.21	56353.96
659.40	56104.10
659.59	56132.78
659.79	56513.70
659.98	55946.41
660.17	56093.86
660.36	56308.90
660.56	55909.55
660.75	56286.37
660.94	56145.06
661.14	56046.76
661.33	56235.17
661.52	55792.81
661.71	56571.04
661.91	55542.96
662.10	56032.42
662.29	56284.33
662.49	55966.89
662.68	55993.51
662.87	56325.28
663.06	56095.91
663.26	55655.60
663.45	56122.54
663.64	55645.36
663.83	56482.98
664.03	56368.29
664.22	55932.07
664.41	55946.41
664.60	55917.74
664.80	56001.71
664.99	55637.17
665.18	55864.49
665.37	56294.56
665.57	56034.47
665.76	55768.24
665.95	55657.65
666.14	55557.30
666.34	55893.16
666.53	55532.72
666.72	55571.63
666.91	55479.47
667.11	55682.22
667.30	55979.18
667.49	55796.91
667.68	55905.45
667.87	55323.83
668.07	56306.85
668.26	56114.34
668.45	55792.81
668.64	55706.80
668.84	56284.33
669.03	55794.86
669.22	55561.39
669.41	56138.92
669.60	55981.23
669.80	55626.93
669.99	55938.22
670.18	55596.21
670.37	55598.26
670.57	56159.40
670.76	55948.46
670.95	56198.31
671.14	55573.68
671.33	55768.24
671.53	56104.10
671.72	55635.12
671.91	55743.66
672.10	55260.34
672.29	55921.83
672.48	55661.74
672.68	56407.20
672.87	55661.74
673.06	55540.91
673.25	55858.35
673.44	56016.04
673.64	55758.00
673.83	55837.87
674.02	55655.60
674.21	55637.17
674.40	55874.73
674.59	55633.07
674.79	55581.87
674.98	55618.74
675.17	55811.24
675.36	55819.44
675.55	55901.36
675.74	55807.15
675.94	55831.72
676.13	55723.18
676.32	55917.74
676.51	56259.75
676.70	56042.66
676.89	55702.70
677.08	56026.28
677.28	56077.48
677.47	56321.19
677.66	55903.40
677.85	55651.50
678.04	55768.24
678.23	56425.64
678.42	56442.02
678.62	55702.70
678.81	56736.93
679.00	56194.21
679.19	56603.81
679.38	55678.13
679.57	55966.89
679.76	56325.28
679.96	55973.03
680.15	55952.55
680.34	56052.90
680.53	55940.27
680.72	56042.66
680.91	56339.62
681.10	56091.82
681.29	56173.73
681.48	55960.75
681.68	56038.57
681.87	56102.06
682.06	55915.69
682.25	55696.56
682.44	56046.76
682.63	56036.52
682.82	55760.05
683.01	56089.77
683.20	55817.39
683.39	55907.50
683.59	55633.07
683.78	56317.09
683.97	55690.41
684.16	55694.51
684.35	55485.62
684.54	55825.58
684.73	55942.31
684.92	55801.00
685.11	55569.58
685.30	55655.60
685.49	55868.59
685.69	55788.72
685.88	55602.35
686.07	55739.57
686.26	55884.97
686.45	56110.25
686.64	56183.97
686.83	55608.50
687.02	56069.29
687.21	55776.43
687.40	55866.54
687.59	55927.98
687.78	56022.19
687.97	56044.71
688.16	55917.74
688.35	55999.66
688.54	55714.99
688.74	56063.14
688.93	55506.10
689.12	55628.98
689.31	56247.46
689.50	56302.76
689.69	55553.20
689.88	55549.10
690.07	56136.87
690.26	55813.29
690.45	55860.40
690.64	55520.43
690.83	55260.34
691.02	55706.80
691.21	55768.24
691.40	55981.23
691.59	55899.31
691.78	55854.25
691.97	55499.95
692.16	55549.10
692.35	56282.28
692.54	56165.54
692.73	56243.37
692.92	55866.54
693.11	55540.91
693.30	55721.13
693.49	56372.39
693.68	55727.28
693.87	55559.34
694.06	55399.60
694.25	55342.26
694.44	55393.46
694.63	55643.31
694.82	55803.05
695.01	55590.06
695.20	55530.67
695.39	55659.69
695.58	55796.91
695.77	55428.27
695.96	55530.67
696.15	55899.31
696.34	55243.96
696.53	55960.75
696.72	55483.57
696.91	55311.54
697.10	55692.46
697.29	55346.36
697.48	55917.74
697.67	55440.56
697.86	54785.21
698.05	54934.71
698.24	55618.74
698.43	55143.61
698.62	55637.17
698.81	54942.91
699.00	55579.82
699.19	54924.47
699.38	55559.34
699.57	55114.94
699.76	55596.21
699.95	54836.41
700.14	54713.53
700.32	54828.22
700.51	55182.52
700.70	55680.17
700.89	55946.41
701.08	54854.84
701.27	54985.91
701.46	55276.72
701.65	54856.89
701.84	55170.23
702.03	55223.48
702.22	54650.05
702.41	54822.08
702.60	55575.73
702.79	55030.97
702.98	54842.56
703.17	54832.32
703.35	54809.79
703.54	54813.88
703.73	54793.40
703.92	55057.59
704.11	54924.47
704.30	54695.10
704.49	54801.60
704.68	54559.94
704.87	54994.10
705.06	54461.63
705.25	54609.09
705.43	54809.79
705.62	54875.32
705.81	54279.36
706.00	54484.16
706.19	54074.57
706.38	54279.36
706.57	54478.02
706.76	54510.78
706.95	54670.53
707.14	54424.77
707.32	54549.70
707.51	54023.37
707.70	54557.89
707.89	54238.40
708.08	54029.51
708.27	54506.69
708.46	54635.71
708.65	53992.65
708.84	54531.26
709.02	54144.20
709.21	54344.90
709.40	54195.40
709.59	54236.36
709.78	54277.32
709.97	54168.77
710.16	53574.86
710.34	54066.38
710.53	53767.37
710.72	53533.90
710.91	54113.48
711.10	54236.36
711.29	53847.24
711.48	53867.72
711.66	53949.64
711.85	53697.74
712.04	53406.93
712.23	53671.12
712.42	53333.20
712.61	53548.24
712.80	53525.71
712.98	53769.42
713.17	53368.02
713.36	53220.56
713.55	53454.03
713.74	53654.73
713.93	53202.13
714.11	53286.10
714.30	52978.90
714.49	53302.48
714.68	52942.04
714.87	53462.22
715.06	53140.69
715.24	52686.04
715.43	53165.27
715.62	52692.19
715.81	52780.25
716.00	52909.27
716.18	52444.38
716.37	52618.46
716.56	52495.58
716.75	53122.26
716.94	52966.62
717.12	52262.11
717.31	52319.46
717.50	52698.33
717.69	52487.39
717.88	52352.23
718.06	52458.72
718.25	52090.09
718.44	51832.04
718.63	52522.21
718.82	51926.25
719.00	51967.21
719.19	51549.42
719.38	51907.82
719.57	51492.08
719.76	51381.49
719.94	51348.72
720.13	51758.31
720.32	51602.67
720.51	51705.07
720.69	51862.76
720.88	50910.46
721.07	51299.57
721.26	50760.95
721.44	50644.22
721.63	51279.09
721.82	51172.60
722.01	51066.10
722.20	50756.86
722.38	50824.44
722.57	50070.79
722.76	50959.61
722.95	50652.41
723.13	50246.91
723.32	50302.21
723.51	49923.33
723.70	49939.72
723.88	50003.20
724.07	49779.98
724.26	50230.53
724.44	49906.95
724.63	49792.26
724.82	50074.88
725.01	49960.20
725.19	49952.01
725.38	49462.54
725.57	49669.39
725.76	49376.53
725.94	49427.73
726.13	49583.37
726.32	49331.47
726.51	49431.82
726.69	49808.65
726.88	49685.77
727.07	49487.12
727.25	49321.23
727.44	49194.26
727.63	49394.96
727.82	49499.40
728.00	49253.65
728.19	49181.97
728.38	49792.26
728.56	48682.27
728.75	49513.74
728.94	49040.66
729.12	49329.42
729.31	48966.93
729.50	48979.22
729.69	49247.50
729.87	49032.47
730.06	48991.51
730.25	48878.87
730.43	49313.04
730.62	49014.04
730.81	48858.39
730.99	49349.90
731.18	48305.44
731.37	48987.41
731.55	48921.88
731.74	48979.22
731.93	48901.40
732.11	48485.66
732.30	48534.81
732.49	48364.83
732.67	48676.12
732.86	48565.53
733.05	48760.09
733.23	47879.46
733.42	48346.40
733.61	48602.39
733.79	48506.14
733.98	48870.68
734.17	48051.49
734.35	48289.06
734.54	48454.94
734.73	48715.03
734.91	48387.36
735.10	47580.46
735.29	48411.93
735.47	47506.73
735.66	48131.36
735.84	48248.10
736.03	47586.60
736.22	48399.65
736.40	47883.56
736.59	48014.63
736.78	47711.53
736.96	47830.31
737.15	47961.38
737.33	47476.01
737.52	47535.40
737.71	47506.73
737.89	47910.18
738.08	47289.65
738.27	47412.52
738.45	48196.90
738.64	47537.45
738.82	47449.39
739.01	47551.79
739.20	47136.05
739.38	47465.77
739.57	47541.55
739.75	47400.24
739.94	47090.99
740.13	47326.51
740.31	47265.07
740.50	46943.54
740.68	47271.21
740.87	46859.57
741.06	47017.27
741.24	46554.43
741.43	46984.50
741.61	46957.88
741.80	46916.92
741.99	46832.95
742.17	46808.37
742.36	46466.36
742.54	46677.30
742.73	46736.69
742.91	46751.03
743.10	46828.85
743.29	46679.35
743.47	46859.57
743.66	46437.69
743.84	46511.42
744.03	46685.50
744.21	46327.10
744.40	46595.38
744.59	46452.03
744.77	46132.54
744.96	45956.42
745.14	45849.92
745.33	45966.66
745.51	45712.71
745.70	46191.94
745.88	45569.35
746.07	45792.58
746.26	45647.18
746.44	45905.22
746.63	46120.26
746.81	45638.98
747.00	45483.34
747.18	45978.95
747.37	45919.56
747.55	45301.07
747.74	45966.66
747.92	45831.49
748.11	45393.23
748.29	45311.31
748.48	45178.19
748.66	45221.20
748.85	45614.41
749.03	45774.15
749.22	45425.99
749.41	44936.53
749.59	45555.02
749.78	45239.63
749.96	44930.39
750.15	44811.60
750.33	45313.36
750.52	44864.85
750.70	45006.16
750.89	44909.91
751.07	44889.43
751.26	44965.20
751.44	44545.37
751.63	44840.28
751.81	44744.02
752.00	44512.60
752.18	45151.57
752.37	44809.56
752.55	44402.01
752.74	44283.23
752.92	44748.12
753.10	44359.00
753.29	44871.00
753.47	44432.73
753.66	44027.23
753.84	44336.48
754.03	44213.60
754.21	44229.98
754.40	44344.67
754.58	44633.43
754.77	44045.66
754.95	43945.31
755.14	43890.02
755.32	44201.31
755.51	44033.38
755.69	44053.86
755.88	43588.97
756.06	43976.03
756.24	43654.50
756.43	43875.68
756.61	43957.60
756.80	43562.34
756.98	43605.35
757.17	44027.23
757.35	43734.37
757.54	43654.50
757.72	43812.20
757.90	43640.17
758.09	43507.05
758.27	43386.22
758.46	43437.42
758.64	43634.02
758.83	43588.97
759.01	43570.54
759.19	43292.01
759.38	43148.65
759.56	43392.36
759.75	43662.69
759.93	43199.85
760.12	42730.87
760.30	43275.63
760.48	43144.56
760.67	43208.04
760.85	43246.96
761.04	43144.56
761.22	43208.04
761.40	43033.97
761.59	42849.65
761.77	43111.79
761.96	42964.34
762.14	42878.32
762.32	42943.86
762.51	42698.10
762.69	42689.91
762.88	43124.08
763.06	42808.69
763.24	42585.46
763.43	42845.55
763.61	42792.31
763.80	42321.27
763.98	42487.16
764.16	42583.41
764.35	42218.88
764.53	42122.62
764.72	42374.52
764.90	42501.50
765.08	42370.43
765.27	42145.15
765.45	41989.50
765.63	41977.22
765.82	42251.64
766.00	41600.39
766.18	41870.72
766.37	42327.42
766.55	42012.03
766.74	41989.50
766.92	41866.63
767.10	41698.69
767.29	41678.21
767.47	41377.16
767.65	41745.80
767.84	41180.56
768.02	41672.07
768.20	41393.54
768.39	41594.25
768.57	41424.26
768.75	41328.01
768.94	41790.85
769.12	41723.27
769.30	41285.00
769.49	41483.66
769.67	41115.02
769.85	40875.41
770.04	40934.80
770.22	40920.46
770.40	41117.07
770.59	40848.78
770.77	41420.17
770.95	41487.75
771.14	40889.74
771.32	40713.62
771.50	40897.94
771.69	40830.35
771.87	41180.56
772.05	40850.83
772.24	40613.27
772.42	40914.32
772.60	40932.75
772.78	40752.53
772.97	40486.29
773.15	41188.75
773.33	40580.50
773.52	40502.68
773.70	40938.90
773.88	40613.27
774.07	40576.40
774.25	40648.08
774.43	40971.66
774.61	40809.87
774.80	40813.97
774.98	40910.22
775.16	41106.83
775.34	40687.00
775.53	40912.27
775.71	40920.46
775.89	40813.97
776.08	40986.00
776.26	41006.48
776.44	40893.84
776.62	40791.44
776.81	40504.73
776.99	41225.61
777.17	40613.27
777.35	40809.87
777.54	41295.24
777.72	40719.76
777.90	40899.98
778.08	41317.77
778.27	41067.92
778.45	41330.06
778.63	41504.13
778.81	41014.67
779.00	41819.52
779.18	41319.82
779.36	41678.21
779.54	41170.32
779.73	41397.64
779.91	41696.64
780.09	41926.02
780.27	41876.86
780.46	41686.40
780.64	41852.29
780.82	41575.81
781.00	41477.51
781.19	41682.31
781.37	41678.21
781.55	41960.83
781.73	42370.43
781.91	41840.00
782.10	42098.05
782.28	41790.85
782.46	42069.37
782.64	42308.99
782.82	41889.15
783.01	42038.65
783.19	42169.72
783.37	42386.81
783.55	41821.57
783.74	42300.79
783.92	42116.48
784.10	42261.88
784.28	42186.11
784.46	41629.06
784.64	42036.61
784.83	42208.64
785.01	42169.72
785.19	42247.55
785.37	42022.27
785.55	42048.89
785.74	41602.44
785.92	42102.14
786.10	42403.19
786.28	42042.75
786.46	41764.23
786.64	41387.40
786.83	42007.94
787.01	41987.46
787.19	42034.56
787.37	41907.58
787.55	41780.61
787.74	41846.15
787.92	41819.52
788.10	41735.56
788.28	41749.89
788.46	41596.29
788.64	41565.57
788.82	42016.13
789.01	41745.80
789.19	41782.66
789.37	41121.16
789.55	41293.19
789.73	41248.14
789.91	41178.51
790.09	40940.94
790.28	41528.71
790.46	40709.52
790.64	41194.89
790.82	41196.94
791.00	40795.54
791.18	40930.70
791.36	40656.28
791.55	41047.44
791.73	41026.96
791.91	40619.41
792.09	40666.52
792.27	40691.09
792.45	40570.26
792.63	40549.78
792.81	40648.08
793.00	40519.06
793.18	40437.14
793.36	40326.55
793.54	40238.49
793.72	40318.36
793.90	40295.83
794.08	39962.01
794.26	40258.97
794.44	39574.95
794.62	39579.04
794.81	39988.64
794.99	39638.44
795.17	39669.15
795.35	39593.38
795.53	39368.10
795.71	39738.79
795.89	39048.62
796.07	39251.37
796.25	39026.09
796.43	39060.91
796.61	38974.89
796.80	39218.60
796.98	38915.50
797.16	38991.28
797.34	38962.61
797.52	38847.92
797.70	38839.73
797.88	38507.96
798.06	38333.88
798.24	38311.35
798.42	38352.31
798.60	38245.82
798.78	38100.41
798.96	38120.89
799.14	37887.42
799.32	37995.96
799.51	37348.81
799.69	37868.99
799.87	37973.44
800.05	37670.34
800.23	37588.42
800.41	37371.33
800.59	37533.12
800.77	37563.84
800.95	36888.01
801.13	37195.21
801.31	36943.31
801.49	37148.11
801.67	36857.29
801.85	36675.02
802.03	36609.49
802.21	36412.88
802.39	36298.20
802.57	36670.93
802.75	36341.21
802.93	36310.49
803.11	36357.59
803.29	36247.00
803.47	35904.99
803.65	36361.69
803.83	36048.35
804.01	35735.01
804.19	35442.15
804.37	35567.07
804.55	35669.47
804.73	35562.98
804.91	35694.05
805.09	35182.06
805.27	35321.32
805.45	35415.52
805.63	35331.56
805.81	35321.32
805.99	35118.57
806.17	35442.15
806.35	34975.21
806.53	34536.94
806.71	35128.81
806.89	34809.32
807.07	34819.56
807.25	34665.97
807.43	34452.98
807.61	35016.17
807.79	34510.32
807.97	34352.63
808.15	34274.80
808.33	34131.45
808.51	34360.82
808.69	34315.76
808.87	34369.01
809.05	33867.26
809.23	33928.70
809.41	33723.90
809.59	33433.09
809.77	33553.92
809.95	33254.92
810.13	33453.57
810.31	33531.39
810.49	33560.06
810.67	33832.44
810.84	33646.08
811.02	33588.74
811.20	33228.29
811.38	33177.09
811.56	32982.54
811.74	33162.76
811.92	33138.18
812.10	33236.48
812.28	33148.42
812.46	33052.17
812.64	32816.65
812.82	32480.78
813.00	32767.50
813.18	32833.04
813.36	32472.59
813.53	32071.19
813.71	32448.02
813.89	32093.72
814.07	31950.36
814.25	32341.52
814.43	31999.51
814.61	32126.49
814.79	31884.83
814.97	32120.34
815.15	31985.18
815.33	31702.56
815.50	31780.38
815.68	31864.35
815.86	31962.65
816.04	31376.93
816.22	31444.51
816.40	31405.60
816.58	31231.52
816.76	31307.30
816.94	31561.25
817.11	31305.25
817.29	31434.27
817.47	31344.16
817.65	30973.48
817.83	30996.01
818.01	30680.62
818.19	31004.20
818.37	30783.02
818.54	30668.33
818.72	30651.95
818.90	30666.28
819.08	30512.69
819.26	30338.61
819.44	30373.42
819.62	30799.40
819.80	30647.85
819.97	30424.62
820.15	30527.02
820.33	30086.71
820.51	30404.14
820.69	29906.49
820.87	30283.31
821.05	30498.35
821.22	30238.26
821.40	29781.56
821.58	29775.42
821.76	30021.17
821.94	29382.21
822.12	29748.79
822.29	29908.54
822.47	29480.51
822.65	29640.25
822.83	29736.51
823.01	29480.51
823.19	29609.53
823.36	29531.71
823.54	29257.28
823.72	29240.90
823.90	29437.50
824.08	29023.81
824.25	29120.07
824.43	28880.46
824.61	28880.46
824.79	29019.72
824.97	28646.99
825.15	29044.29
825.32	29066.82
825.50	28755.53
825.68	28495.44
825.86	28790.34
826.04	28640.84
826.21	28739.15
826.39	28761.67
826.57	28413.52
826.75	28208.72
826.93	28284.50
827.10	28259.92
827.28	28608.08
827.46	28399.18
827.64	28405.33
827.81	28192.34
827.99	28114.52
828.17	27883.09
828.35	27866.71
828.53	27965.01
828.70	27897.43
828.88	28288.59
829.06	27895.38
829.24	28143.19
829.41	27473.50
829.59	27952.73
829.77	27864.66
829.95	27692.63
830.12	27686.49
830.30	27635.29
830.48	27915.86
830.66	27504.22
830.84	27577.95
831.01	27340.38
831.19	27369.05
831.37	27381.34
831.55	26955.36
831.72	26992.23
831.90	27229.79
832.08	27125.35
832.25	27170.40
832.43	27274.85
832.61	26898.02
832.79	26508.91
832.96	26834.53
833.14	26998.37
833.32	26955.36
833.50	26781.29
833.67	27090.53
833.85	26416.75
834.03	26510.96
834.20	26785.38
834.38	26822.25
834.56	26842.73
834.74	26527.34
834.91	26248.82
835.09	26367.60
835.27	26214.00
835.44	26377.84
835.62	26076.79
835.80	26183.28
835.98	26230.38
836.15	26119.79
836.33	26068.59
836.51	26336.88
836.68	25816.69
836.86	26046.07
837.04	25992.82
837.21	26076.79
837.39	25767.54
837.57	25898.61
837.75	25710.20
837.92	25636.47
838.10	25640.57
838.28	25314.94
838.45	25609.85
838.63	25390.72
838.81	25691.77
838.98	25609.85
839.16	25503.35
839.34	25607.80
839.51	25458.30
839.69	25185.92
839.87	25222.78
840.04	25097.86
840.22	25333.37
840.40	25190.02
840.57	24903.30
840.75	25302.65
840.93	24856.20
841.10	24966.79
841.28	25167.49
841.46	24915.59
841.63	25165.44
841.81	24901.25
841.98	24827.53
842.16	24821.38
842.34	24796.81
842.51	24434.32
842.69	24829.57
842.87	24807.05
843.04	24934.02
843.22	24557.19
843.40	24460.94
843.57	24546.95
843.75	24471.18
843.92	24749.70
844.10	24608.39
844.28	24727.17
844.45	24503.95
844.63	24495.75
844.81	23889.56
844.98	24331.92
845.16	24022.67
845.33	24305.29
845.51	24057.49
845.69	23991.95
845.86	23914.13
846.04	23707.29
846.21	23905.94
846.39	24041.11
846.57	24082.06
846.74	23856.79
846.92	23668.37
847.09	23692.95
847.27	23514.78
847.45	23766.68
847.62	23891.60
847.80	23576.22
847.97	23783.06
848.15	23598.74
848.32	23488.15
848.50	23520.92
848.68	23402.14
848.85	23447.19
849.03	22826.66
849.20	23252.64
849.38	23125.66
849.56	23635.61
849.73	23223.97
849.91	23185.05
850.08	23078.56
850.26	22841.00
850.43	23305.88
850.61	22972.07
850.78	22894.24
850.96	22898.34
851.14	22922.91
851.31	22949.54
851.49	22728.36
851.66	23240.35
851.84	22822.56
852.01	22843.04
852.19	22693.54
852.36	22527.66
852.54	22486.70
852.71	22697.64
852.89	22591.14
853.07	22517.42
853.24	22507.18
853.42	22449.83
853.59	22566.57
853.77	22646.44
853.94	22744.74
854.12	22509.22
854.29	22296.24
854.47	22355.63
854.64	22372.01
854.82	22191.79
854.99	22056.62
855.17	22271.66
855.34	22240.94
855.52	22167.21
855.69	22296.24
855.87	21980.85
856.04	21771.96
856.22	22130.35
856.39	21921.46
856.57	21943.99
856.74	22066.86
856.92	21774.00
857.09	21804.72
857.27	21724.85
857.44	21976.75
857.62	21894.83
857.79	21800.63
857.97	21821.11
858.14	21585.59
858.32	21636.79
858.49	21620.41
858.67	21423.80
858.84	21651.13
859.02	21550.78
859.19	21343.93
859.37	21300.92
859.54	21472.95
859.72	21403.32
859.89	21464.76
860.06	21499.58
860.24	21073.60
860.41	21540.54
860.59	20844.23
860.76	21169.85
860.94	21151.42
861.11	21262.01
861.29	21264.06
861.46	20995.78
861.64	20776.64
861.81	21087.93
861.98	20963.01
862.16	20932.29
862.33	20850.37
862.51	20909.76
862.68	20883.14
862.86	20854.47
863.03	20686.53
863.21	20698.82
863.38	20778.69
863.55	20836.03
863.73	20606.66
863.90	20534.98
864.08	20567.75
864.25	20453.06
864.43	20680.39
864.60	20504.26
864.77	20395.72
864.95	20479.69
865.12	20373.19
865.30	20285.13
865.47	20393.67
865.64	20319.95
865.82	20350.67
865.99	20332.23
866.17	19953.36
866.34	20428.49
866.51	20068.05
866.69	20434.63
866.86	20393.67
867.04	20152.01
867.21	20131.53
867.38	19853.01
867.56	19875.54
867.73	19906.26
867.91	19795.67
868.08	20022.99
868.25	19914.45
868.43	19908.30
868.60	19787.47
868.78	19766.99
868.95	20166.35
869.12	19726.04
869.30	19656.40
869.47	19830.48
869.64	19572.44
869.82	19771.09
869.99	19619.54
870.16	19470.04
870.34	19476.18
870.51	19492.57
870.69	19379.93
870.86	19314.39
871.03	19222.23
871.21	19302.11
871.38	19822.29
871.55	19121.88
871.73	19048.16
871.90	19283.67
872.07	18896.61
872.25	18882.27
872.42	18845.41
872.59	19085.02
872.77	18876.13
872.94	18865.89
873.11	18706.15
873.29	19078.88
873.46	18706.15
873.63	18759.39
873.81	18644.71
873.98	18728.67
874.15	18929.38
874.33	18351.85
874.50	18396.90
874.67	18648.80
874.85	18593.51
875.02	18415.34
875.19	18392.81
875.37	18237.16
875.54	18253.55
875.71	18429.67
875.88	18114.28
876.06	18147.05
876.23	18292.46
876.40	18202.35
876.58	17954.54
876.75	18163.43
876.92	18077.42
877.10	18233.07
877.27	18151.15
877.44	17876.72
877.61	17815.28
877.79	17995.50
877.96	17684.21
878.13	17862.38
878.31	17835.76
878.48	17831.66
878.65	17579.76
878.82	17516.28
879.00	17534.71
879.17	17526.52
879.34	17317.62
879.51	17377.01
879.69	17370.87
879.86	17012.48
880.03	17284.86
880.21	17411.83
880.38	17585.91
880.55	17434.36
880.72	17612.53
880.90	17358.58
881.07	17288.95
881.24	17026.81
881.41	17417.97
881.59	17282.81
881.76	17319.67
881.93	17030.91
882.10	16987.90
882.28	16971.52
882.45	17065.72
882.62	16989.95
882.79	17114.87
882.96	16897.79
883.14	17063.68
883.31	17313.53
883.48	17049.34
883.65	16692.99
883.83	17045.24
884.00	17016.57
884.17	17080.06
884.34	17080.06
884.51	16891.65
884.69	17143.55
884.86	16695.04
885.03	17180.41
885.20	16625.41
885.38	16826.11
885.55	16744.19
885.72	16594.69
885.89	16733.95
886.06	16717.57
886.24	16680.71
886.41	16592.64
886.58	16813.82
886.75	16897.79
886.92	16680.71
887.10	16496.39
887.27	16588.55
887.44	16721.66
887.61	16596.74
887.78	16488.20
887.95	16645.89
888.13	16457.48
888.30	16123.66
888.47	16213.77
888.64	16631.55
888.81	16201.48
888.99	16228.10
889.16	15861.52
889.33	16131.85
889.50	16119.56
889.67	15947.53
889.84	15937.29
890.01	16033.55
890.19	16211.72
890.36	16099.08
890.53	15902.48
890.70	15882.00
890.87	16054.03
891.04	15836.94
891.22	15888.14
891.39	15748.88
891.56	15865.61
891.73	15804.17
891.90	15752.98
892.07	15687.44
892.24	15775.50
892.42	15632.15
892.59	15619.86
892.76	16025.36
892.93	15478.55
893.10	15683.34
893.27	15679.25
893.44	15462.16
893.61	15582.99
893.79	15689.49
893.96	15535.89
894.13	15468.31
894.30	15505.17
894.47	15509.27
894.64	15738.64
894.81	15501.08
894.98	15626.00
895.15	15679.25
895.33	15451.92
895.50	15337.24
895.67	15550.23
895.84	15134.49
896.01	15537.94
896.18	15394.58
896.35	15734.54
896.52	15640.34
896.69	15445.78
896.86	15486.74
897.04	15750.93
897.21	15292.18
897.38	15320.85
897.55	15400.72
897.72	15752.98
897.89	15505.17
898.06	15550.23
898.23	15146.78
898.40	15365.91
898.57	15380.25
898.74	15439.64
898.91	15343.38
899.08	15361.81
899.26	15353.62
899.43	15292.18
899.60	15439.64
899.77	15398.68
899.94	15374.10
900.11	15437.59
900.28	15259.42
900.45	15167.26
900.62	15306.52
900.79	15517.46
900.96	15398.68
901.13	15247.13
901.30	15548.18
901.47	15249.18
901.64	15537.94
901.81	15458.07
901.98	15140.63
902.15	15357.72
902.32	15224.60
902.49	15308.57
902.66	15185.69
902.83	15396.63
903.01	15261.46
903.18	15527.70
903.35	15443.73
903.52	15230.74
903.69	15550.23
903.86	15318.81
904.03	15343.38
904.20	15478.55
904.37	15531.80
904.54	15396.63
904.71	15271.70
904.88	15345.43
905.05	15263.51
905.22	15402.77
905.39	15245.08
905.56	15095.58
905.73	15159.06
905.90	15265.56
906.07	15144.73
906.24	15173.40
906.41	15083.29
906.58	15398.68
906.75	15230.74
906.92	15175.45
907.09	15300.37
907.26	15122.20
907.43	15167.26
907.60	15378.20
907.77	15460.12
907.93	15453.97
908.10	15265.56
908.27	15476.50
908.44	15077.15
908.61	15224.60
908.78	15101.72
908.95	15300.37
909.12	15159.06
909.29	15066.91
909.46	15447.83
909.63	15071.00
909.80	15146.78
909.97	15312.66
910.14	15185.69
910.31	15294.23
910.48	15208.22
910.65	15054.62
910.82	15040.28
910.99	15093.53
911.16	14989.08
911.33	15130.39
911.50	14888.73
911.66	15030.04
911.83	15318.81
912.00	15036.19
912.17	14876.44
912.34	14669.60
912.51	14747.42
912.68	14815.01
912.85	15042.33
913.02	14718.75
913.19	14708.51
913.36	14776.09
913.53	14952.22
913.70	14487.33
913.86	14974.75
914.03	14690.08
914.20	14620.45
914.37	14851.87
914.54	14720.80
914.71	14270.25
914.88	14571.30
915.05	14577.44
915.22	14528.29
915.39	14507.81
915.55	14372.64
915.72	14571.30
915.89	14290.73
916.06	14290.73
916.23	14526.24
916.40	14124.84
916.57	14358.31
916.74	14315.30
916.91	14130.98
917.07	14358.31
917.24	14169.90
917.41	14204.71
917.58	14073.64
917.75	14204.71
917.92	13817.65
918.09	14081.83
918.26	14018.35
918.42	13932.33
918.59	14100.26
918.76	13780.78
918.93	13672.24
919.10	13758.25
919.27	13719.34
919.44	13854.51
919.60	13915.95
919.77	13776.69
919.94	13684.53
920.11	13436.72
920.28	13565.74
920.45	13262.65
920.61	13369.14
920.78	13485.87
920.95	13496.11
921.12	13412.15
921.29	13070.14
921.46	13346.61
921.62	13057.85
921.79	13274.93
921.96	13057.85
922.13	13018.94
922.30	13104.95
922.47	12898.11
922.63	12672.83
922.80	12988.22
922.97	12873.53
923.14	12826.43
923.31	12746.56
923.47	12689.21
923.64	12945.21
923.81	12687.17
923.98	12762.94
924.15	12508.99
924.32	12541.76
924.48	12732.22
924.65	12470.08
924.82	12429.12
924.99	12293.96
925.15	12379.97
925.32	12461.89
925.49	12003.14
925.66	12007.24
925.83	12109.64
925.99	11982.67
926.16	12025.67
926.33	11943.75
926.50	11900.75
926.67	12035.91
926.83	12029.77
927.00	11800.40
927.17	11759.44
927.34	11751.24
927.50	11671.37
927.67	11638.61
927.84	11603.79
928.01	11611.98
928.17	11554.64
928.34	11468.62
928.51	11493.20
928.68	11333.46
928.84	11534.16
929.01	11196.25
929.18	11048.79
929.35	11145.05
929.51	11163.48
929.68	10927.96
929.85	10977.11
930.02	10897.24
930.18	10956.63
930.35	10815.32
930.52	10876.76
930.69	10936.15
930.85	10831.71
931.02	10708.83
931.19	10633.05
931.36	10393.44
931.52	10532.70
931.69	10776.41
931.86	10422.11
932.02	10524.51
932.19	10360.67
932.36	10434.40
932.53	10354.53
932.69	10153.83
932.86	10145.64
933.03	10291.04
933.19	9817.96
933.36	10094.44
933.53	10061.67
933.70	9785.19
933.86	9998.18
934.03	9713.52
934.20	9736.04
934.36	9772.91
934.53	9619.31
934.70	9422.70
934.86	9537.39
935.03	9445.23
935.20	9486.19
935.36	9201.52
935.53	9203.57
935.70	9138.04
935.86	9291.63
936.03	9097.08
936.20	8830.84
936.36	8839.03
936.53	8861.56
936.70	8796.03
936.86	8841.08
937.03	8601.47
937.20	8384.38
937.36	8511.36
937.53	8198.02
937.70	8185.73
937.86	8161.16
938.03	8210.31
938.20	8243.07
938.36	7819.14
938.53	7890.82
938.70	7733.13
938.86	7792.52
939.03	7638.92
939.20	7542.67
939.36	7491.47
939.53	7350.16
939.70	7421.84
939.86	7098.26
940.03	7206.80
940.19	7085.97
940.36	7061.40
940.53	7047.06
940.69	6842.26
940.86	6827.93
941.03	6666.14
941.19	6686.62
941.36	6557.60
941.52	6645.66
941.69	6453.15
941.86	6401.95
942.02	6500.25
942.19	6186.91
942.35	6320.03
942.52	6188.96
942.69	6123.43
942.85	6004.64
943.02	5969.83
943.18	6023.08
943.35	5851.05
943.52	5906.34
943.68	5875.62
943.85	5812.14
944.01	5879.72
944.18	5799.85
944.35	5990.31
944.51	5824.42
944.68	5584.81
944.84	5556.14
945.01	5621.67
945.17	5443.50
945.34	5656.49
945.51	5760.94
945.67	5550.00
945.84	5644.20
946.00	5496.75
946.17	5451.69
946.33	5392.30
946.50	5423.02
946.67	5398.45
946.83	5470.12
947.00	5312.43
947.16	5318.57
947.33	5541.80
947.49	5357.49
947.66	5441.45
947.82	5412.78
947.99	5382.06
948.16	5445.55
948.32	5484.46
948.49	5435.31
948.65	5486.51
948.82	5375.92
948.98	5257.14
949.15	5429.17
949.31	5375.92
949.48	5568.43
949.64	5488.56
949.81	5402.54
949.97	5365.68
950.14	5437.36
950.30	5304.24
950.47	5615.53
950.63	5367.73
950.80	5554.09
950.96	5547.95
951.13	5437.36
951.30	5474.22
951.46	5435.31
951.63	5701.54
951.79	5511.08
951.96	5488.56
952.12	5570.48
952.29	5613.48
952.45	5328.81
952.62	5529.52
952.78	5513.13
952.94	5494.70
953.11	5554.09
953.27	5375.92
953.44	5750.70
953.60	5414.83
953.77	5586.86
953.93	5570.48
954.10	5623.72
954.26	5535.66
954.43	5619.63
954.59	5623.72
954.76	5752.74
954.92	5564.33
955.09	5676.97
955.25	5541.80
955.42	5570.48
955.58	5683.11
955.75	5527.47
955.91	5582.76
956.07	5726.12
956.24	5736.36
956.40	5654.44
956.57	5750.70
956.73	5521.32
956.90	5730.22
957.06	5670.83
957.23	5652.39
957.39	5547.95
957.56	5695.40
957.72	5582.76
957.88	5588.91
958.05	5646.25
958.21	5578.67
958.38	5662.63
958.54	5590.95
958.71	5613.48
958.87	5607.34
959.03	5668.78
959.20	5627.82
959.36	5562.28
959.53	5416.88
959.69	5547.95
959.85	5611.43
960.02	5504.94
960.18	5572.52
960.35	5429.17
960.51	5633.96
960.68	5631.91
960.84	5644.20
961.00	5502.89
961.17	5429.17
961.33	5506.99
961.50	5533.61
961.66	5617.58
961.82	5683.11
961.99	5666.73
962.15	5525.42
962.31	5533.61
962.48	5433.26
962.64	5640.11
962.81	5394.35
962.97	5427.12
963.13	5605.29
963.30	5533.61
963.46	5406.64
963.62	5451.69
963.79	5533.61
963.95	5500.84
964.12	5578.67
964.28	5537.71
964.44	5474.22
964.61	5480.36
964.77	5476.27
964.93	5560.24
965.10	5478.32
965.26	5386.16
965.42	5486.51
965.59	5496.75
965.75	5263.28
965.92	5418.93
966.08	5466.03
966.24	5529.52
966.41	5304.24
966.57	5480.36
966.73	5513.13
966.90	5451.69
967.06	5402.54
967.22	5310.38
967.39	5357.49
967.55	5214.13
967.71	5320.62
967.88	5328.81
968.04	5248.94
968.20	5285.81
968.37	5185.46
968.53	5277.62
968.69	5486.51
968.85	5367.73
969.02	5330.86
969.18	5269.42
969.34	5152.69
969.51	5236.66
969.67	5242.80
969.83	5103.54
970.00	5259.18
970.16	5214.13
970.32	5353.39
970.48	5416.88
970.65	5160.88
970.81	5140.40
970.97	5183.41
971.14	5031.86
971.30	5056.43
971.46	5207.98
971.63	5115.83
971.79	5244.85
971.95	5027.76
972.11	5040.05
972.28	4990.90
972.44	5009.33
972.60	4992.95
972.76	4941.75
972.93	4913.08
973.09	4951.99
973.25	5025.72
973.42	4878.26
973.58	5023.67
973.74	4960.18
973.90	4960.18
974.07	4808.63
974.23	4898.74
974.39	4986.80
974.55	4820.92
974.72	4704.18
974.88	4992.95
975.04	4937.65
975.20	4812.73
975.37	4853.69
975.53	4802.49
975.69	4970.42
975.85	4849.59
976.01	4822.97
976.18	4712.38
976.34	4822.97
976.50	4980.66
976.66	4771.77
976.83	4800.44
976.99	4730.81
977.15	4769.72
977.31	4603.83
977.47	4786.10
977.64	4673.46
977.80	4616.12
977.96	4632.51
978.12	4648.89
978.29	4605.88
978.45	4526.01
978.61	4607.93
978.77	4624.31
978.93	4630.46
979.10	4659.13
979.26	4526.01
979.42	4636.60
979.58	4413.37
979.74	4392.89
979.91	4472.76
980.07	4569.02
980.23	4435.90
980.39	4401.08
980.55	4538.30
980.71	4431.80
980.88	4476.86
981.04	4425.66
981.20	4327.36
981.36	4456.38
981.52	4487.10
981.68	4343.74
981.85	4364.22
982.01	4403.13
982.17	4288.45
982.33	4409.28
982.49	4407.23
982.65	4284.35
982.82	4329.41
982.98	4433.85
983.14	4136.90
983.30	4333.50
983.46	4474.81
983.62	4302.78
983.79	4157.38
983.95	4179.90
984.11	4255.68
984.27	4229.06
984.43	4108.23
984.59	4214.72
984.75	4175.81
984.91	4093.89
985.08	4288.45
985.24	4233.15
985.40	4104.13
985.56	4071.36
985.72	4313.02
985.88	4192.19
986.04	4059.07
986.20	4151.23
986.37	4114.37
986.53	3987.40
986.69	4112.32
986.85	4057.03
987.01	4016.07
987.17	4161.47
987.33	4048.83
987.49	3901.38
987.65	4097.99
987.82	4030.40
987.98	3985.35
988.14	3975.11
988.30	4011.97
988.46	3954.63
988.62	3946.44
988.78	3811.27
988.94	3913.67
989.10	3856.33
989.26	3813.32
989.42	3846.09
989.59	3856.33
989.75	3762.12
989.91	3817.41
990.07	3844.04
990.23	3729.35
990.39	3782.60
990.55	3891.14
990.71	3667.91
990.87	3755.97
991.03	3968.96
991.19	3723.21
991.35	3692.49
991.51	3770.31
991.67	3878.85
991.83	3692.49
992.00	3741.64
992.16	3809.22
992.32	3862.47
992.48	3614.66
992.64	3727.30
992.80	3680.20
992.96	3663.82
993.12	3741.64
993.28	3710.92
993.44	3643.34
993.60	3616.71
993.76	3616.71
993.92	3645.38
994.08	3743.69
994.24	3581.90
994.40	3506.12
994.56	3643.34
994.72	3534.79
994.88	3551.18
995.04	3583.95
995.20	3522.51
995.36	3559.37
995.52	3624.90
995.68	3516.36
995.84	3461.07
996.00	3590.09
996.16	3469.26
996.32	3512.27
996.48	3452.88
996.64	3600.33
996.80	3391.44
996.96	3436.49
997.12	3454.92
997.28	3366.86
997.44	3379.15
997.60	3424.20
997.76	3370.96
997.92	3420.11
998.08	3416.01
998.24	3325.90
998.40	3409.87
998.56	3393.48
998.72	3243.98
998.88	3235.79
999.04	3330.00
999.20	3321.81
999.36	3186.64
999.52	3504.07
999.68	3350.48
999.84	3305.42
1000.00	3235.79
1000.16	3348.43
1000.32	3129.30
1000.48	3321.81
1000.64	3205.07
1000.80	3209.17
1000.95	3164.11
1001.11	3250.13
1001.27	3176.40
1001.43	3319.76
1001.59	3053.52
1001.75	3135.44
1001.91	3157.97
1002.07	3178.45
1002.23	3055.57
1002.39	3155.92
1002.55	3149.78
1002.71	3147.73
1002.87	3174.35
1003.03	3082.19
1003.19	2957.27
1003.34	3026.90
1003.50	3006.42
1003.66	3096.53
1003.82	3063.76
1003.98	2983.89
1004.14	3026.90
1004.30	3055.57
1004.46	2961.36
1004.62	3004.37
1004.78	2975.70
1004.94	3039.19
1005.09	3069.91
1005.25	2926.55
1005.41	2944.98
1005.57	2959.31
1005.73	3010.51
1005.89	2990.03
1006.05	2987.99
1006.21	2953.17
1006.37	2848.72
1006.52	2901.97
1006.68	2838.48
1006.84	2961.36
1007.00	2883.54
1007.16	2949.08
1007.32	2795.48
1007.48	2854.87
1007.64	3008.47
1007.79	2826.20
1007.95	2820.05
1008.11	2936.79
1008.27	2772.95
1008.43	2824.15
1008.59	2779.09
1008.75	2826.20
1008.91	2854.87
1009.06	2838.48
1009.22	2793.43
1009.38	2758.61
1009.54	2772.95
1009.70	2707.41
1009.86	2762.71
1010.01	2791.38
1010.17	2779.09
1010.33	2836.44
1010.49	2801.62
1010.65	2752.47
1010.81	2676.70
1010.96	2705.37
1011.12	2723.80
1011.28	2727.89
1011.44	2725.85
1011.60	2703.32
1011.76	2674.65
1011.91	2713.56
1012.07	2670.55
1012.23	2662.36
1012.39	2576.34
1012.55	2719.70
1012.71	2602.97
1012.86	2635.74
1013.02	2588.63
1013.18	2639.83
1013.34	2607.06
1013.50	2674.65
1013.65	2582.49
1013.81	2623.45
1013.97	2586.58
1014.13	2617.30
1014.29	2559.96
1014.44	2625.50
1014.60	2541.53
1014.76	2551.77
1014.92	2574.30
1015.07	2510.81
1015.23	2514.91
1015.39	2461.66
1015.55	2535.39
1015.71	2584.54
1015.86	2437.08
1016.02	2527.19
1016.18	2480.09
1016.34	2430.94
1016.49	2521.05
1016.65	2605.02
1016.81	2465.75
1016.97	2549.72
1017.12	2549.72
1017.28	2408.41
1017.44	2414.56
1017.60	2400.22
1017.75	2359.26
1017.91	2381.79
1018.07	2482.14
1018.23	2508.76
1018.38	2420.70
1018.54	2385.88
1018.70	2529.24
1018.86	2410.46
1019.01	2379.74
1019.17	2414.56
1019.33	2449.37
1019.49	2406.36
1019.64	2428.89
1019.80	2432.99
1019.96	2385.88
1020.12	2394.08
1020.27	2322.40
1020.43	2344.92
1020.59	2389.98
1020.74	2379.74
1020.90	2383.84
1021.06	2240.48
1021.22	2400.22
1021.37	2357.21
1021.53	2271.20
1021.69	2426.84
1021.84	2203.61
1022.00	2289.63
1022.16	2244.57
1022.31	2248.67
1022.47	2367.45
1022.63	2291.68
1022.79	2242.53
1022.94	2283.49
1023.10	2314.20
1023.26	2240.48
1023.41	2252.77
1023.57	2215.90
1023.73	2269.15
1023.88	2211.81
1024.04	2183.13
1024.20	2263.01
1024.35	2238.43
1024.51	2306.01
1024.67	2265.05
1024.82	2244.57
1024.98	2179.04
1025.14	2299.87
1025.29	2222.05
1025.45	2238.43
1025.61	2129.89
1025.76	2146.27
1025.92	2197.47
1026.08	2205.66
1026.23	2213.85
1026.39	2176.99
1026.55	2160.61
1026.70	2125.79
1026.86	2170.85
1027.02	2248.67
1027.17	2193.37
1027.33	2263.01
1027.48	2088.93
1027.64	2191.33
1027.80	2099.17
1027.95	2152.42
1028.11	2009.06
1028.27	2131.94
1028.42	2142.18
1028.58	2002.91
1028.73	2115.55
1028.89	2052.06
1029.05	2150.37
1029.20	2150.37
>>>>>End Processed Spectral Data<<<<<
