SpectraSuite Data File
++++++++++++++++++++++++++++++++++++
Date: Fri Jun 02 14:44:32 CEST 2017
User: INFO_000
Dark Spectrum Present: No
Reference Spectrum Present: No
Number of Sampled Component Spectra: 1
Spectrometers: USB4H00879
Integration Time (usec): 80000 (USB4H00879)
Spectra Averaged: 1 (USB4H00879)
Boxcar Smoothing: 0 (USB4H00879)
Correct for Electrical Dark: No (USB4H00879)
Strobe/Lamp Enabled: No (USB4H00879)
Correct for Detector Non-linearity: No (USB4H00879)
Correct for Stray Light: No (USB4H00879)
Number of Pixels in Processed Spectrum: 3648
>>>>>Begin Processed Spectral Data<<<<<
345.13	1304.56
345.34	1304.56
345.56	1304.56
345.78	1236.97
345.99	1269.74
346.21	1730.53
346.42	1695.72
346.64	1683.43
346.86	1794.02
347.07	1650.66
347.29	1718.25
347.50	1634.28
347.72	1587.18
347.94	1773.54
348.15	1613.80
348.37	1656.81
348.59	1712.10
348.80	1601.51
349.02	1740.77
349.23	1830.88
349.45	1820.64
349.67	1826.79
349.88	1724.39
350.10	1986.53
350.31	1892.32
350.53	1736.68
350.75	1908.71
350.96	1748.97
351.18	1886.18
351.39	1798.12
351.61	1759.21
351.82	1847.27
352.04	1828.84
352.26	1712.10
352.47	1863.65
352.69	1861.60
352.90	1724.39
353.12	1773.54
353.34	1720.29
353.55	1882.08
353.77	1865.70
353.98	1748.97
354.20	1800.16
354.41	1843.17
354.63	1877.99
354.85	1986.53
355.06	1925.09
355.28	1753.06
355.49	1882.08
355.71	1820.64
355.92	1855.46
356.14	1890.28
356.35	1734.63
356.57	1810.40
356.79	1937.38
357.00	1882.08
357.22	1923.04
357.43	1812.45
357.65	1861.60
357.86	1806.31
358.08	1884.13
358.29	1828.84
358.51	1957.86
358.72	1949.67
358.94	1929.19
359.16	1898.47
359.37	1855.46
359.59	1943.52
359.80	1939.43
360.02	1920.99
360.23	1875.94
360.45	2009.06
360.66	1949.67
360.88	1796.07
361.09	1875.94
361.31	1955.81
361.52	1937.38
361.74	1992.67
361.95	2007.01
362.17	1949.67
362.38	2013.15
362.60	2035.68
362.81	1998.82
363.03	1976.29
363.24	1974.24
363.46	2007.01
363.67	1968.10
363.89	1902.56
364.10	1945.57
364.32	1912.80
364.53	1972.19
364.75	1900.52
364.96	1931.23
365.18	2007.01
365.39	1982.43
365.61	1912.80
365.82	2117.60
366.04	2004.96
366.25	1902.56
366.47	2054.11
366.68	1931.23
366.90	1943.52
367.11	2070.50
367.33	2017.25
367.54	2133.98
367.76	1992.67
367.97	2156.51
368.19	2025.44
368.40	2064.35
368.62	1904.61
368.83	1847.27
369.05	2045.92
369.26	2019.30
369.48	1959.91
369.69	1986.53
369.91	2076.64
370.12	1996.77
370.33	2039.78
370.55	1920.99
370.76	2039.78
370.98	2015.20
371.19	2052.06
371.41	2007.01
371.62	2066.40
371.84	2066.40
372.05	2162.66
372.27	2080.74
372.48	2013.15
372.69	2097.12
372.91	2142.18
373.12	2090.98
373.34	1986.53
373.55	2142.18
373.77	2109.41
373.98	2107.36
374.20	2125.79
374.41	2185.18
374.62	2121.70
374.84	2205.66
375.05	2203.61
375.27	2105.31
375.48	2080.74
375.70	2226.14
375.91	2187.23
376.12	2246.62
376.34	2115.55
376.55	2193.37
376.77	2217.95
376.98	2080.74
377.19	2072.54
377.41	2148.32
377.62	2224.09
377.84	2201.57
378.05	2224.09
378.27	2281.44
378.48	2234.33
378.69	2459.61
378.91	2326.49
379.12	2246.62
379.34	2256.86
379.55	2322.40
379.76	2297.82
379.98	2283.49
380.19	2297.82
380.41	2148.32
380.62	2203.61
380.83	2252.77
381.05	2232.29
381.26	2492.38
381.47	2226.14
381.69	2287.58
381.90	2365.40
382.12	2322.40
382.33	2320.35
382.54	2299.87
382.76	2277.34
382.97	2285.53
383.19	2285.53
383.40	2349.02
383.61	2396.12
383.83	2326.49
384.04	2328.54
384.25	2269.15
384.47	2441.18
384.68	2416.60
384.89	2353.12
385.11	2271.20
385.32	2303.96
385.54	2314.20
385.75	2398.17
385.96	2344.92
386.18	2432.99
386.39	2398.17
386.60	2469.85
386.82	2385.88
387.03	2387.93
387.24	2568.15
387.46	2471.90
387.67	2543.58
387.88	2516.95
388.10	2463.71
388.31	2525.15
388.52	2486.23
388.74	2545.63
388.95	2510.81
389.16	2531.29
389.38	2381.79
389.59	2600.92
389.80	2660.31
390.02	2533.34
390.23	2635.74
390.44	2521.05
390.66	2467.80
390.87	2586.58
391.08	2566.10
391.30	2701.27
391.51	2621.40
391.72	2602.97
391.94	2633.69
392.15	2555.86
392.36	2617.30
392.58	2617.30
392.79	2684.89
393.00	2678.74
393.22	2772.95
393.43	2815.96
393.64	2850.77
393.85	2770.90
394.07	2678.74
394.28	2686.94
394.49	2768.85
394.71	2744.28
394.92	2883.54
395.13	2670.55
395.35	2662.36
395.56	2748.37
395.77	2815.96
395.98	2856.92
396.20	2856.92
396.41	2799.57
396.62	2953.17
396.84	2908.12
397.05	2815.96
397.26	2805.72
397.47	2912.21
397.69	2881.49
397.90	3026.90
398.11	2938.84
398.32	2889.68
398.54	2930.64
398.75	2936.79
398.96	3008.47
399.18	3076.05
399.39	2981.84
399.60	3092.43
399.81	3024.85
400.03	2990.03
400.24	3205.07
400.45	3047.38
400.66	3127.25
400.88	3051.47
401.09	3157.97
401.30	3084.24
401.51	3112.91
401.73	3153.87
401.94	3172.30
402.15	3065.81
402.36	3133.39
402.58	3063.76
402.79	3198.93
403.00	3190.74
403.21	3260.37
403.43	3252.17
403.64	3381.20
403.85	3078.10
404.06	3229.65
404.27	3092.43
404.49	3178.45
404.70	3137.49
404.91	3248.08
405.12	3250.13
405.34	3330.00
405.55	3352.52
405.76	3186.64
405.97	3293.13
406.19	3342.28
406.40	3211.22
406.61	3360.72
406.82	3368.91
407.03	3276.75
407.25	3346.38
407.46	3518.41
407.67	3368.91
407.88	3452.88
408.09	3299.28
408.31	3319.76
408.52	3504.07
408.73	3459.02
408.94	3274.70
409.15	3438.54
409.37	3366.86
409.58	3485.64
409.79	3467.21
410.00	3450.83
410.21	3459.02
410.43	3428.30
410.64	3510.22
410.85	3528.65
411.06	3452.88
411.27	3538.89
411.48	3631.05
411.70	3508.17
411.91	3575.75
412.12	3647.43
412.33	3667.91
412.54	3598.28
412.76	3592.14
412.97	3772.36
413.18	3532.75
413.39	3592.14
413.60	3655.62
413.81	3739.59
414.03	3606.47
414.24	3641.29
414.45	3852.23
414.66	3612.62
414.87	3655.62
415.08	3712.97
415.30	3764.17
415.51	3891.14
415.72	3815.37
415.93	3907.52
416.14	3786.69
416.35	3866.56
416.56	3796.93
416.78	3833.80
416.99	3934.15
417.20	3952.58
417.41	3864.52
417.62	3915.72
417.83	4007.87
418.04	3803.08
418.26	3907.52
418.47	3895.24
418.68	3993.54
418.89	4016.07
419.10	4085.70
419.31	4079.55
419.52	4116.42
419.73	4014.02
419.95	4190.14
420.16	3923.91
420.37	4063.17
420.58	4009.92
420.79	3874.76
421.00	4173.76
421.21	4177.86
421.42	4003.78
421.63	4124.61
421.85	4155.33
422.06	4247.49
422.27	4247.49
422.48	4202.43
422.69	4263.87
422.90	4257.73
423.11	4218.82
423.32	4442.04
423.53	4403.13
423.75	4341.69
423.96	4511.68
424.17	4448.19
424.38	4558.78
424.59	4427.71
424.80	4607.93
425.01	4497.34
425.22	4401.08
425.43	4345.79
425.64	4714.42
425.85	4661.18
426.06	4599.74
426.28	4435.90
426.49	4571.07
426.70	4460.48
426.91	4743.10
427.12	4726.71
427.33	4706.23
427.54	4581.31
427.75	4706.23
427.96	4810.68
428.17	4775.86
428.38	4837.30
428.59	4968.37
428.80	4894.65
429.01	4951.99
429.23	4833.21
429.44	5001.14
429.65	4923.32
429.86	4966.32
430.07	4835.25
430.28	5007.28
430.49	5056.43
430.70	5158.83
430.91	5095.35
431.12	5062.58
431.33	5287.86
431.54	5140.40
431.75	5160.88
431.96	5185.46
432.17	5126.07
432.38	5083.06
432.59	5410.73
432.80	5193.65
433.01	5384.11
433.22	5326.77
433.43	5429.17
433.64	5257.14
433.85	5214.13
434.06	5412.78
434.27	5470.12
434.49	5470.12
434.70	5498.80
434.91	5449.64
435.12	5476.27
435.33	5347.25
435.54	5314.48
435.75	5377.97
435.96	5506.99
436.17	5443.50
436.38	5687.21
436.59	5621.67
436.80	5552.04
437.01	5715.88
437.22	5799.85
437.43	5793.70
437.64	5619.63
437.85	5840.81
438.06	5935.01
438.27	5773.22
438.48	5713.83
438.69	5887.91
438.90	5885.86
439.11	5691.31
439.32	5867.43
439.53	5937.06
439.74	5892.01
439.95	5980.07
440.16	5951.40
440.37	5824.42
440.57	5875.62
440.78	5967.78
440.99	6010.79
441.20	5953.45
441.41	5949.35
441.62	6082.47
441.83	5908.39
442.04	6084.52
442.25	6176.67
442.46	6168.48
442.67	6213.54
442.88	6586.27
443.09	6082.47
443.30	5965.73
443.51	6188.96
443.72	6381.47
443.93	6141.86
444.14	6375.33
444.35	6246.30
444.56	6336.42
444.77	6340.51
444.98	6367.13
445.19	6490.01
445.40	6498.20
445.61	6365.09
445.81	6535.07
446.02	6506.40
446.23	6530.97
446.44	6246.30
446.65	6619.04
446.86	6592.41
447.07	6643.61
447.28	6680.47
447.49	6707.10
447.70	6483.87
447.91	6731.67
448.12	6700.95
448.33	6901.65
448.54	6793.11
448.74	6768.54
448.95	6911.89
449.16	6688.67
449.37	7036.82
449.58	6881.18
449.79	7100.31
450.00	6774.68
450.21	6907.80
450.42	7040.92
450.63	6942.61
450.84	6997.91
451.05	7075.73
451.25	6911.89
451.46	7040.92
451.67	7114.64
451.88	6985.62
452.09	7085.97
452.30	7190.42
452.51	7186.32
452.72	7374.74
452.93	7610.25
453.13	7202.71
453.34	7227.28
453.55	7292.82
453.76	7401.36
453.97	7622.54
454.18	7434.13
454.39	7569.29
454.60	7565.20
454.81	7380.88
455.01	7659.40
455.22	7477.13
455.43	7600.01
455.64	7905.16
455.85	7825.29
456.06	8089.48
456.27	7966.60
456.48	7874.44
456.68	7784.33
456.89	7913.35
457.10	8036.23
457.31	8255.36
457.52	7872.39
457.73	8163.20
457.94	8406.91
458.14	8060.80
458.35	8621.95
458.56	8255.36
458.77	8218.50
458.98	8353.66
459.19	8472.45
459.39	8540.03
459.60	8730.49
459.81	8357.76
460.02	8693.63
460.23	8529.79
460.44	8892.28
460.65	8783.74
460.85	8748.92
461.06	8798.07
461.27	8671.10
461.48	8994.68
461.69	9140.08
461.89	8779.64
462.10	8931.19
462.31	8865.66
462.52	8992.63
462.73	9080.69
462.94	9217.91
463.14	9070.45
463.35	9074.55
463.56	9609.07
463.77	9574.25
463.98	9267.06
464.18	9432.94
464.39	9639.79
464.60	9717.61
464.81	9723.76
465.02	9809.77
465.23	9817.96
465.43	9834.35
465.64	10155.88
465.85	9736.04
466.06	9889.64
466.27	10248.04
466.47	10202.98
466.68	10338.15
466.89	10112.87
467.10	10241.89
467.30	10006.38
467.51	10342.24
467.72	10520.42
467.93	10176.36
468.14	10444.64
468.34	10743.64
468.55	10667.87
468.76	10878.81
468.97	10520.42
469.17	10958.68
469.38	10813.28
469.59	10944.34
469.80	10751.84
470.01	10917.72
470.21	10964.82
470.42	11237.20
470.63	11439.95
470.84	11167.57
471.04	11290.45
471.25	11614.03
471.46	11462.48
471.67	11882.31
471.87	11398.99
472.08	11710.29
472.29	12046.15
472.50	11382.61
472.70	11796.30
472.91	11931.47
473.12	12123.98
473.33	12066.63
473.53	12185.41
473.74	12013.38
473.95	12361.54
474.16	12486.47
474.36	12439.36
474.57	12734.27
474.78	12506.95
474.99	12531.52
475.19	12449.60
475.40	12918.59
475.61	13068.09
475.81	13098.81
476.02	13315.89
476.23	13164.34
476.44	13324.08
476.64	13477.68
476.85	13768.49
477.06	13571.89
477.27	13930.28
477.47	13862.70
477.68	13836.08
477.89	13926.19
478.09	14343.97
478.30	14130.98
478.51	14020.39
478.71	14176.04
478.92	14503.71
479.13	14493.47
479.34	14454.56
479.54	14634.78
479.75	14827.29
479.96	14819.10
480.16	14829.34
480.37	14864.16
480.58	15136.54
480.78	15503.12
480.99	15480.60
481.20	15496.98
481.41	15437.59
481.61	15630.10
481.82	15847.18
482.03	15638.29
482.23	15482.64
482.44	16082.70
482.65	16322.31
482.85	16144.14
483.06	16097.03
483.27	16207.62
483.47	16285.45
483.68	16219.91
483.89	16619.27
484.09	16533.25
484.30	16504.58
484.51	16797.44
484.71	17075.96
484.92	16817.92
485.13	17393.40
485.33	17104.64
485.54	17116.92
485.75	17426.17
485.95	17671.92
486.16	17596.15
486.37	17673.97
486.57	17573.62
486.78	17929.97
486.98	17891.06
487.19	18132.72
487.40	18284.26
487.60	18200.30
487.81	18513.64
488.02	18374.38
488.22	18595.56
488.43	18847.46
488.64	18591.46
488.84	18681.57
489.05	18872.03
489.25	19138.27
489.46	19240.67
489.67	19074.78
489.87	19298.01
490.08	19439.32
490.29	19222.23
490.49	19816.15
490.70	19943.12
490.90	19807.95
491.11	19810.00
491.32	19992.27
491.52	19959.50
491.73	20014.80
491.94	20098.77
492.14	20199.12
492.35	20229.84
492.55	20627.14
492.76	20360.91
492.97	20836.03
493.17	20758.21
493.38	20866.75
493.58	21114.56
493.79	20975.30
494.00	21202.62
494.20	20987.58
494.41	21307.07
494.61	21358.27
494.82	21386.94
495.02	21294.78
495.23	21616.31
495.44	21774.00
495.64	21810.87
495.85	21900.98
496.05	21950.13
496.26	21720.76
496.47	22240.94
496.67	21976.75
496.88	22685.35
497.08	22068.91
497.29	22560.42
497.49	22525.61
497.70	22423.21
497.91	22378.15
498.11	22789.80
498.32	22718.12
498.52	22505.13
498.73	22978.21
498.93	23217.82
499.14	23269.02
499.34	23244.45
499.55	23512.73
499.76	23107.23
499.96	23373.47
500.17	23295.64
500.37	23379.61
500.58	23240.35
500.78	23549.59
500.99	23942.80
501.19	23950.99
501.40	23979.67
501.60	23629.46
501.81	23889.56
502.02	23719.57
502.22	23836.31
502.43	24159.89
502.63	24278.67
502.84	24338.06
503.04	24252.05
503.25	24176.27
503.45	24372.88
503.66	24759.94
503.86	24635.02
504.07	25067.14
504.27	24489.61
504.48	25132.67
504.68	24684.17
504.89	25206.40
505.09	25075.33
505.30	25194.11
505.50	25202.30
505.71	25366.14
505.91	25153.15
506.12	25032.32
506.32	25077.38
506.53	25486.97
506.73	25378.43
506.94	25470.59
507.14	25577.08
507.35	25642.62
507.55	25618.04
507.76	25919.09
507.96	25828.98
508.17	25689.72
508.37	25400.96
508.58	25935.48
508.78	26343.02
508.99	26420.84
509.19	26275.44
509.40	26238.58
509.60	26418.80
509.81	26560.11
510.01	26283.63
510.22	26740.33
510.42	26539.63
510.63	26377.84
510.83	26486.38
511.04	26568.30
511.24	26758.76
511.44	26803.82
511.65	26996.32
511.85	26783.34
512.06	26736.23
512.26	26947.17
512.47	26957.41
512.67	27070.05
512.88	27485.79
513.08	27137.63
513.29	27426.40
513.49	27201.12
513.69	27498.08
513.90	27371.10
514.10	27256.42
514.31	27598.43
514.51	27518.56
514.72	27604.57
514.92	27489.88
515.13	27444.83
515.33	28030.55
515.53	27967.06
515.74	28012.12
515.94	27991.64
516.15	28114.52
516.35	27831.90
516.56	28096.08
516.76	28005.97
516.96	28304.98
517.17	28626.51
517.37	28286.54
517.58	28603.98
517.78	28571.21
517.99	28829.26
518.19	29005.38
518.39	28771.91
518.60	28864.07
518.80	28544.59
519.01	29118.02
519.21	28888.65
519.41	29163.08
519.62	29152.84
519.82	29486.65
520.03	29343.30
520.23	29414.98
520.43	29253.19
520.64	29703.74
520.84	29730.36
521.05	29877.82
521.25	29843.00
521.45	29935.16
521.66	30099.00
521.86	29843.00
522.07	29945.40
522.27	30150.20
522.47	30176.82
522.68	30453.30
522.88	30318.13
523.08	30572.08
523.29	30574.13
523.49	30742.06
523.70	31024.68
523.90	30785.07
524.10	30858.79
524.31	31268.39
524.51	30864.94
524.71	31252.00
524.92	31221.28
525.12	31262.24
525.33	31297.06
525.53	31401.50
525.73	31770.14
525.94	31782.43
526.14	31657.50
526.34	31909.40
526.55	31997.46
526.75	31850.01
526.95	32224.79
527.16	32167.45
527.36	32194.07
527.56	32296.47
527.77	32491.02
527.97	32394.77
528.17	32372.24
528.38	32785.93
528.58	32747.02
528.78	32632.33
528.99	32701.96
529.19	32884.23
529.39	32611.85
529.60	33230.34
529.80	32980.49
530.00	33033.74
530.21	33494.53
530.41	33451.52
530.61	33363.46
530.82	33652.22
531.02	33609.22
531.22	33666.56
531.43	33867.26
531.63	34133.50
531.83	34377.20
532.04	34409.97
532.24	33781.24
532.44	34133.50
532.64	34784.75
532.85	34538.99
533.05	34727.41
533.25	34592.24
533.46	34618.86
533.66	34969.07
533.86	34627.06
534.07	35194.34
534.27	34780.65
534.47	35622.37
534.67	35349.99
534.88	35296.74
535.08	35528.16
535.28	35403.24
535.49	35583.46
535.69	36013.53
535.89	35950.04
536.09	35788.25
536.30	36382.16
536.50	36242.90
536.70	36083.16
536.91	35980.76
537.11	36656.59
537.31	36472.28
537.51	36287.96
537.72	36758.99
537.92	36765.14
538.12	36787.66
538.32	36869.58
538.53	36939.21
538.73	36961.74
538.93	36664.78
539.13	36943.31
539.34	36914.64
539.54	37041.61
539.74	37393.86
539.94	37017.04
540.15	37148.11
540.35	37840.32
540.55	37561.79
540.75	37459.40
540.96	37537.22
541.16	37866.94
541.36	37645.76
541.56	38303.16
541.77	38190.52
541.97	37938.62
542.17	38254.01
542.37	38372.79
542.58	38247.86
542.78	38333.88
542.98	38405.56
543.18	38598.07
543.38	38569.40
543.59	38538.68
543.79	38636.98
543.99	38737.33
544.19	39185.83
544.40	38888.88
544.60	39202.22
544.80	38839.73
545.00	39151.02
545.20	39300.52
545.41	38856.11
545.61	39040.43
545.81	39409.06
546.01	39343.53
546.21	39400.87
546.42	39294.38
546.62	39636.39
546.82	39345.58
547.02	39603.62
547.22	39740.83
547.43	39908.77
547.63	40113.56
547.83	40017.31
548.03	39775.65
548.23	40252.83
548.44	40375.70
548.64	40275.35
548.84	40127.90
549.04	40285.59
549.24	40504.73
549.45	40881.55
549.65	40392.09
549.85	40416.66
550.05	40748.43
550.25	40543.64
550.45	41088.40
550.66	40963.47
550.86	40682.90
551.06	41059.73
551.26	41069.97
551.46	41176.46
551.66	40902.03
551.87	40699.28
552.07	41110.92
552.27	41332.11
552.47	41285.00
552.67	41647.49
552.87	41604.49
553.07	41801.09
553.28	41631.11
553.48	41790.85
553.68	41260.43
553.88	41887.10
554.08	41735.56
554.28	41700.74
554.48	41809.28
554.69	41823.62
554.89	42112.38
555.09	42042.75
555.29	41850.24
555.49	42339.71
555.69	42155.39
555.89	41948.54
556.10	42655.09
556.30	42290.55
556.50	42438.01
556.70	42513.78
556.90	42403.19
557.10	42212.73
557.30	42343.80
557.50	42607.99
557.70	42579.32
557.91	43156.85
558.11	42868.08
558.31	43154.80
558.51	42839.41
558.71	42941.81
558.91	43031.92
559.11	43103.60
559.31	42970.48
559.51	43152.75
559.72	43144.56
559.92	43203.95
560.12	43242.86
560.32	43369.83
560.52	43242.86
560.72	43212.14
560.92	43728.23
561.12	43572.58
561.32	44016.99
561.52	43474.28
561.72	44043.62
561.93	43355.50
562.13	43740.52
562.33	43468.14
562.53	44078.43
562.73	43578.73
562.93	43627.88
563.13	43930.98
563.33	43677.03
563.53	44234.08
563.73	43941.22
563.93	44148.06
564.13	44359.00
564.33	44258.65
564.53	44098.91
564.74	44344.67
564.94	43988.32
565.14	44260.70
565.34	44395.87
565.54	44471.64
565.74	44227.93
565.94	44514.65
566.14	44619.10
566.34	44424.54
566.54	45141.33
566.74	44324.19
566.94	44385.63
567.14	44770.64
567.34	44588.38
567.54	44481.88
567.74	44649.81
567.94	44604.76
568.14	45270.35
568.34	45077.84
568.54	44922.19
568.74	44926.29
568.94	45016.40
569.14	45376.84
569.34	45061.46
569.54	45471.05
569.75	45241.68
569.95	45421.90
570.15	45921.60
570.35	45593.93
570.55	45180.24
570.75	45276.49
570.95	45616.46
571.15	45636.94
571.35	45851.97
571.55	45741.38
571.75	45495.63
571.95	45479.24
572.15	45497.67
572.35	45569.35
572.55	45913.41
572.75	45946.18
572.95	45868.36
573.15	45948.23
573.35	45598.02
573.55	45598.02
573.75	46228.80
573.95	45583.69
574.15	46169.41
574.35	46212.41
574.55	46087.49
574.75	45798.73
574.95	45970.75
575.15	45954.37
575.34	46337.34
575.54	46511.42
575.74	46468.41
575.94	46157.12
576.14	46298.43
576.34	46380.35
576.54	46683.45
576.74	46558.52
576.94	46347.58
577.14	46708.02
577.34	46695.74
577.54	46411.07
577.74	46658.87
577.94	46832.95
578.14	46593.34
578.34	47052.08
578.54	46415.16
578.74	46701.88
578.94	46875.96
579.14	47013.17
579.34	46959.92
579.54	47154.48
579.74	47275.31
579.94	47228.21
580.13	47324.46
580.33	47490.35
580.53	47703.34
580.73	47568.17
580.93	47209.78
581.13	47553.83
581.33	47670.57
581.53	47549.74
581.73	47609.13
581.93	47951.14
582.13	47822.12
582.33	47830.31
582.53	47656.23
582.73	47756.58
582.92	47678.76
583.12	48039.20
583.32	47699.24
583.52	47562.03
583.72	48065.83
583.92	47879.46
584.12	48063.78
584.32	48280.86
584.52	48016.68
584.72	48190.75
584.92	48297.25
585.11	48602.39
585.31	48446.75
585.51	48354.59
585.71	48553.24
585.91	48997.65
586.11	48432.41
586.31	48624.92
586.51	48809.24
586.71	48694.55
586.91	48821.53
587.10	48663.83
587.30	48796.95
587.50	49321.23
587.70	49136.91
587.90	49034.52
588.10	48778.52
588.30	49192.21
588.50	49323.28
588.69	49196.31
588.89	48921.88
589.09	49255.70
589.29	49489.16
589.49	49882.37
589.69	48762.14
589.89	49769.74
590.08	49476.88
590.28	49343.76
590.48	49558.80
590.68	49431.82
590.88	50042.12
591.08	49493.26
591.28	49591.56
591.47	50296.06
591.67	49988.87
591.87	49931.53
592.07	49935.62
592.27	49939.72
592.47	50009.35
592.67	49808.65
592.86	50015.49
593.06	50257.15
593.26	50242.82
593.46	50158.85
593.66	50189.57
593.86	50468.09
594.05	50271.49
594.25	50490.62
594.45	50480.38
594.65	50509.05
594.85	50164.99
595.05	50468.09
595.24	50824.44
595.44	50351.36
595.64	50703.61
595.84	51139.83
596.04	50914.55
596.23	50918.65
596.43	51723.50
596.63	50980.09
596.83	50922.74
597.03	51219.70
597.22	51547.37
597.42	51422.45
597.62	51770.60
597.82	51387.63
598.02	51205.36
598.21	51721.45
598.41	51051.76
598.61	51881.19
598.81	51717.35
599.01	52315.36
599.20	51971.30
599.40	51954.92
599.60	52141.28
599.80	52270.31
600.00	52120.80
600.19	52131.04
600.39	51688.68
600.59	52028.65
600.79	52120.80
600.98	52485.34
601.18	52614.37
601.38	52628.70
601.58	52802.78
601.78	52782.30
601.97	52710.62
602.17	53404.88
602.37	52974.81
602.57	53093.59
602.76	53226.71
602.96	52827.35
603.16	52954.33
603.36	53494.99
603.55	53449.94
603.75	53304.53
603.95	53454.03
604.15	53830.86
604.34	53343.44
604.54	53714.12
604.74	53652.69
604.94	53955.78
605.13	54160.58
605.33	53611.73
605.53	53816.52
605.73	53818.57
605.92	54080.71
606.12	54209.73
606.32	54449.35
606.52	53845.19
606.71	53959.88
606.91	54222.02
607.11	53920.97
607.30	54369.47
607.50	54144.20
607.70	54746.30
607.90	54506.69
608.09	54113.48
608.29	54471.87
608.49	54424.77
608.68	54437.06
608.88	55092.41
609.08	54793.40
609.28	54928.57
609.47	54514.88
609.67	55467.19
609.87	55231.67
610.06	55436.47
610.26	54705.34
610.46	55307.44
610.66	55086.26
610.85	55180.47
611.05	55043.26
611.25	55227.57
611.44	54645.95
611.64	55504.05
611.84	54754.49
612.03	54871.23
612.23	55082.17
612.43	55043.26
612.62	55071.93
612.82	55436.47
613.02	55342.26
613.21	55487.67
613.41	55358.64
613.61	55647.41
613.80	54885.56
614.00	55430.32
614.20	55108.79
614.39	55268.53
614.59	55661.74
614.79	55291.06
614.98	55086.26
615.18	55311.54
615.38	55270.58
615.57	55133.37
615.77	55422.13
615.97	55272.63
616.16	55612.59
616.36	55508.14
616.56	55557.30
616.75	55268.53
616.95	55237.81
617.15	55450.80
617.34	55508.14
617.54	55094.46
617.74	55854.25
617.93	55721.13
618.13	54901.95
618.32	55049.40
618.52	55260.34
618.72	55157.94
618.91	55583.92
619.11	55239.86
619.31	55575.73
619.50	54981.82
619.70	55270.58
619.90	55555.25
620.09	55483.57
620.29	55270.58
620.48	55467.19
620.68	55876.78
620.88	55071.93
621.07	55491.76
621.27	55647.41
621.46	54781.12
621.66	54930.62
621.86	55280.82
622.05	55239.86
622.25	55272.63
622.44	55200.95
622.64	54580.42
622.84	55145.65
623.03	55084.22
623.23	55059.64
623.42	55338.16
623.62	55735.47
623.82	55465.14
624.01	54713.53
624.21	55405.75
624.40	55250.10
624.60	55258.29
624.80	55143.61
624.99	54766.78
625.19	54543.55
625.38	55348.40
625.58	54940.86
625.77	55420.08
625.97	54979.77
626.17	54793.40
626.36	55284.92
626.56	55020.73
626.75	54496.45
626.95	55203.00
627.14	54744.25
627.34	55485.62
627.54	55059.64
627.73	55164.09
627.93	54820.03
628.12	54852.80
628.32	54899.90
628.51	54944.95
628.71	54752.44
628.90	54957.24
629.10	54871.23
629.30	55301.30
629.49	54963.39
629.69	54877.37
629.88	55069.88
630.08	55321.78
630.27	55035.06
630.47	54588.61
630.66	54793.40
630.86	55045.30
631.05	54654.14
631.25	55440.56
631.44	55243.96
631.64	54963.39
631.84	55020.73
632.03	55385.27
632.23	55030.97
632.42	55465.14
632.62	55164.09
632.81	54715.58
633.01	54967.48
633.20	55067.83
633.40	54985.91
633.59	54951.10
633.79	54777.02
633.98	54910.14
634.18	54533.31
634.37	55006.39
634.57	54990.01
634.76	55258.29
634.96	54731.96
635.15	55047.35
635.35	54613.18
635.54	54875.32
635.74	55055.54
635.93	54916.28
636.13	54654.14
636.32	54838.46
636.52	54764.73
636.71	55200.95
636.91	55391.41
637.10	54994.10
637.30	54867.13
637.49	55325.88
637.69	54760.64
637.88	55356.60
638.08	54588.61
638.27	55362.74
638.46	55211.19
638.66	55133.37
638.85	55327.92
639.05	55612.59
639.24	55346.36
639.44	54938.81
639.63	55004.34
639.83	55270.58
640.02	54891.71
640.22	55248.05
640.41	55815.34
640.61	54842.56
640.80	55383.22
640.99	55342.26
641.19	55610.54
641.38	55166.13
641.58	55125.17
641.77	55413.94
641.97	54777.02
642.16	55415.99
642.36	55258.29
642.55	55502.00
642.74	55022.78
642.94	55874.73
643.13	55311.54
643.33	55448.75
643.52	55782.57
643.72	55667.89
643.91	55694.51
644.10	55751.85
644.30	55801.00
644.49	55637.17
644.69	55657.65
644.88	55844.01
645.08	55631.02
645.27	55438.51
645.46	55407.79
645.66	55833.77
645.85	55516.34
646.05	55932.07
646.24	55921.83
646.43	56171.69
646.63	56128.68
646.82	55983.27
647.02	56024.23
647.21	56169.64
647.40	55858.35
647.60	56761.50
647.79	56085.67
647.99	56038.57
648.18	55825.58
648.37	56456.35
648.57	56595.62
648.76	56313.00
648.96	56169.64
649.15	56145.06
649.34	56419.49
649.54	56505.51
649.73	56431.78
649.92	56507.55
650.12	56386.72
650.31	56765.60
650.51	56779.93
650.70	56693.92
650.89	56339.62
651.09	56800.41
651.28	56321.19
651.47	56679.58
651.67	56695.97
651.86	56984.73
652.06	56763.55
652.25	57085.08
652.44	56865.95
652.64	56765.60
652.83	56845.47
653.02	56407.20
653.22	56603.81
653.41	56784.03
653.60	56519.84
653.80	56665.25
653.99	56931.48
654.18	56685.73
654.38	56857.76
654.57	57250.97
654.76	56788.13
654.96	56726.69
655.15	56767.65
655.34	56824.99
655.54	56583.33
655.73	57248.92
655.92	56992.92
656.12	57349.27
656.31	56818.84
656.50	57070.75
656.70	57234.58
656.89	57144.47
657.08	57308.31
657.28	57300.12
657.47	56933.53
657.66	57369.75
657.86	57132.18
658.05	57050.27
658.24	57545.87
658.43	57027.74
658.63	57480.34
658.82	57386.13
659.01	57599.12
659.21	57355.41
659.40	57408.66
659.59	57226.39
659.79	57472.15
659.98	57765.01
660.17	57242.77
660.36	57425.04
660.56	57461.91
660.75	57738.38
660.94	57584.79
661.14	57330.84
661.33	57246.87
661.52	57488.53
661.71	57783.44
661.91	57867.40
662.10	57519.25
662.29	57775.25
662.49	57740.43
662.68	57724.05
662.87	57646.22
663.06	57795.73
663.26	57726.10
663.45	58111.11
663.64	57527.44
663.83	58027.15
664.03	57717.90
664.22	57975.95
664.41	57631.89
664.60	57513.11
664.80	57316.50
664.99	57509.01
665.18	57701.52
665.37	57416.85
665.57	58172.55
665.76	57705.62
665.95	57740.43
666.14	57662.61
666.34	57783.44
666.53	57746.57
666.72	57351.32
666.91	57703.57
667.11	57701.52
667.30	58094.73
667.49	57683.09
667.68	57803.92
667.87	57574.55
668.07	57748.62
668.26	57664.66
668.45	57842.83
668.64	57461.91
668.84	58217.61
669.03	57525.39
669.22	57662.61
669.41	57709.71
669.60	57812.11
669.80	57586.83
669.99	58098.83
670.18	57377.94
670.37	57836.69
670.57	57930.89
670.76	57576.59
670.95	57851.02
671.14	57810.06
671.33	57447.57
671.53	57791.63
671.72	57531.54
671.91	57453.72
672.10	57210.01
672.29	57623.70
672.48	57676.94
672.68	57767.05
672.87	57615.50
673.06	57480.34
673.25	57189.53
673.44	56988.83
673.64	57447.57
673.83	57672.85
674.02	57048.22
674.21	57320.60
674.40	57611.41
674.59	57214.10
674.79	57406.61
674.98	57058.46
675.17	57881.74
675.36	57037.98
675.55	57635.98
675.74	56908.96
675.94	57336.98
676.13	57484.43
676.32	57595.03
676.51	57601.17
676.70	57201.82
676.89	57445.52
677.08	57513.11
677.28	57580.69
677.47	57566.35
677.66	57033.88
677.85	57253.01
678.04	57509.01
678.23	57584.79
678.42	57193.62
678.62	57144.47
678.81	57736.34
679.00	57162.90
679.19	57582.74
679.38	57263.25
679.57	57283.73
679.76	56990.87
679.96	57699.47
680.15	57040.03
680.34	56788.13
680.53	57101.46
680.72	57023.64
680.91	57181.34
681.10	56708.25
681.29	57054.36
681.48	56702.11
681.68	56384.68
681.87	56765.60
682.06	56532.13
682.25	56376.48
682.44	56741.02
682.63	56530.08
682.82	56556.70
683.01	56386.72
683.20	56198.31
683.39	56487.07
683.59	56206.50
683.78	56249.51
683.97	55975.08
684.16	56345.76
684.35	56317.09
684.54	55801.00
684.73	55981.23
684.92	56188.07
685.11	56239.27
685.30	55893.16
685.49	56497.31
685.69	55821.48
685.88	56069.29
686.07	56138.92
686.26	56001.71
686.45	56100.01
686.64	55985.32
686.83	55676.08
687.02	55940.27
687.21	56073.38
687.40	55485.62
687.59	55727.28
687.78	55743.66
687.97	55585.97
688.16	55616.69
688.35	55368.88
688.54	55579.82
688.74	55770.28
688.93	55399.60
689.12	55489.71
689.31	55760.05
689.50	56366.24
689.69	55248.05
689.88	54994.10
690.07	55796.91
690.26	55391.41
690.45	55891.12
690.64	55305.40
690.83	55157.94
691.02	54938.81
691.21	55313.59
691.40	54928.57
691.59	55026.87
691.78	55211.19
691.97	55538.86
692.16	54760.64
692.35	55723.18
692.54	55334.07
692.73	55215.29
692.92	54570.18
693.11	54846.65
693.30	54826.17
693.49	54842.56
693.68	54893.75
693.87	55008.44
694.06	55385.27
694.25	54754.49
694.44	54146.25
694.63	54744.25
694.82	54850.75
695.01	54768.83
695.20	54574.27
695.39	54277.32
695.58	54494.40
695.77	54396.10
695.96	54230.21
696.15	54740.16
696.34	54568.13
696.53	54555.84
696.72	54684.86
696.91	54711.49
697.10	54224.07
697.29	54172.87
697.48	54418.63
697.67	54211.78
697.86	54199.49
698.05	54088.90
698.24	54398.15
698.43	53695.69
698.62	54621.37
698.81	53544.14
699.00	53929.16
699.19	53556.43
699.38	53927.11
699.57	53556.43
699.76	54203.59
699.95	53699.79
700.14	53429.46
700.32	54105.29
700.51	53638.35
700.70	53718.22
700.89	53794.00
701.08	53753.04
701.27	54121.67
701.46	53980.36
701.65	53112.02
701.84	53564.62
702.03	53447.89
702.22	53630.16
702.41	53683.40
702.60	53359.83
702.79	53290.19
702.98	53232.85
703.17	53253.33
703.35	52993.24
703.54	53384.40
703.73	53832.91
703.92	53314.77
704.11	53312.72
704.30	52974.81
704.49	53347.54
704.68	53064.92
704.87	53007.58
705.06	53015.77
705.25	53429.46
705.43	53341.39
705.62	52714.72
705.81	52987.10
706.00	53294.29
706.19	52944.09
706.38	53138.65
706.57	53183.70
706.76	53171.41
706.95	53073.11
707.14	53013.72
707.32	52786.39
707.51	52794.59
707.70	53126.36
707.89	52565.21
708.08	52575.45
708.27	53066.97
708.46	53122.26
708.65	53017.82
708.84	52712.67
709.02	52507.87
709.21	52767.96
709.40	52753.63
709.59	52868.31
709.78	52354.27
709.97	53146.84
710.16	52507.87
710.34	52507.87
710.53	52505.82
710.72	52737.24
710.91	52739.29
711.10	52745.44
711.29	52813.02
711.48	52329.70
711.66	52518.11
711.85	52151.52
712.04	52761.82
712.23	52096.23
712.42	52282.59
712.61	52561.12
712.80	52255.97
712.98	52397.28
713.17	52409.57
713.36	52350.18
713.55	52247.78
713.74	52331.75
713.93	52417.76
714.11	51997.93
714.30	51936.49
714.49	52094.18
714.68	52473.06
714.87	52309.22
715.06	52215.01
715.24	51985.64
715.43	52153.57
715.62	51719.40
715.81	51533.04
716.00	52184.29
716.18	51205.36
716.37	51713.26
716.56	51404.02
716.75	52118.76
716.94	51713.26
717.12	51614.96
717.31	52114.66
717.50	51426.54
717.69	51438.83
717.88	51723.50
718.06	52024.55
718.25	51848.42
718.44	51272.95
718.63	51467.50
718.82	51311.86
719.00	51293.43
719.19	51467.50
719.38	51154.16
719.57	51090.68
719.76	50908.41
719.94	50593.02
720.13	50775.29
720.32	51242.23
720.51	50664.70
720.69	51164.40
720.88	50638.08
721.07	50904.31
721.26	50584.83
721.44	50341.12
721.63	50775.29
721.82	50615.55
722.01	50478.33
722.20	50879.74
722.38	50676.99
722.57	50044.16
722.76	50441.47
722.95	50365.70
723.13	50294.02
723.32	50081.03
723.51	50373.89
723.70	50107.65
723.88	50124.04
724.07	49388.81
724.26	50388.22
724.44	49321.23
724.63	50066.69
724.82	49956.10
725.01	49407.25
725.19	49941.77
725.38	49650.95
725.57	49460.49
725.76	49886.47
725.94	49548.56
726.13	49837.32
726.32	49812.74
726.51	49444.11
726.69	49612.04
726.88	49683.72
727.07	49831.18
727.25	49698.06
727.44	49675.53
727.63	49310.99
727.82	49782.02
728.00	49478.92
728.19	49634.57
728.38	50011.40
728.56	49052.95
728.75	50095.36
728.94	49507.60
729.12	49646.86
729.31	49345.81
729.50	49126.67
729.69	49806.60
729.87	49499.40
730.06	49157.39
730.25	49055.00
730.43	50033.92
730.62	49505.55
730.81	49276.18
730.99	49550.60
731.18	49255.70
731.37	49526.03
731.55	49505.55
731.74	49790.22
731.93	49587.47
732.11	49460.49
732.30	49569.04
732.49	49212.69
732.67	49384.72
732.86	49261.84
733.05	49358.09
733.23	48944.41
733.42	49417.49
733.61	49210.64
733.79	49173.78
733.98	49214.74
734.17	49323.28
734.35	49370.38
734.54	49247.50
734.73	49136.91
734.91	49308.94
735.10	48772.38
735.29	49417.49
735.47	48870.68
735.66	48807.19
735.84	49110.29
736.03	48407.84
736.22	48971.03
736.40	48510.24
736.59	49067.28
736.78	48954.64
736.96	49173.78
737.15	48782.62
737.33	48778.52
737.52	48674.07
737.71	48385.31
737.89	48579.87
738.08	48557.34
738.27	48237.86
738.45	48887.06
738.64	48473.37
738.82	48571.67
739.01	48809.24
739.20	48567.58
739.38	47975.72
739.57	48612.63
739.75	48727.32
739.94	48215.33
740.13	47994.15
740.31	47965.48
740.50	47965.48
740.68	48321.82
740.87	48315.68
741.06	48454.94
741.24	47744.30
741.43	47813.93
741.61	48098.59
741.80	47406.38
741.99	47748.39
742.17	47766.82
742.36	47834.41
742.54	47961.38
742.73	47838.50
742.91	48125.22
743.10	47707.43
743.29	47570.22
743.47	47478.06
743.66	47453.48
743.84	47715.62
744.03	47648.04
744.21	47631.66
744.40	48129.31
744.59	47412.52
744.77	46955.83
744.96	47324.46
745.14	47232.30
745.33	47168.82
745.51	47076.66
745.70	47297.84
745.88	46976.31
746.07	47283.50
746.26	46767.41
746.44	47136.05
746.63	47203.63
746.81	46718.26
747.00	46499.13
747.18	46888.24
747.37	46562.62
747.55	46978.36
747.74	47201.58
747.92	46546.23
748.11	46419.26
748.29	46654.78
748.48	46427.45
748.66	46527.80
748.85	46658.87
749.03	46503.23
749.22	47082.80
749.41	46198.08
749.59	46765.37
749.78	46341.44
749.96	45964.61
750.15	46269.76
750.33	46396.73
750.52	45864.26
750.70	46292.29
750.89	45792.58
751.07	46069.06
751.26	45911.36
751.44	46060.87
751.63	45921.60
751.81	45905.22
752.00	45708.61
752.18	45579.59
752.37	45899.08
752.55	45591.88
752.74	45620.55
752.92	45256.01
753.10	45700.42
753.29	45755.72
753.47	45448.52
753.66	45210.96
753.84	45802.82
754.03	45305.16
754.21	44811.60
754.40	45434.19
754.58	45788.49
754.77	45032.78
754.95	45245.77
755.14	44866.90
755.32	45229.39
755.51	44741.97
755.69	44684.63
755.88	44504.41
756.06	44543.32
756.24	44762.45
756.43	44602.71
756.61	44375.39
756.80	44633.43
756.98	44758.36
757.17	44645.72
757.35	44662.10
757.54	44209.50
757.72	44447.07
757.90	44352.86
758.09	44291.42
758.27	44221.79
758.46	43926.88
758.64	44283.23
758.83	44492.12
759.01	44475.74
759.19	44291.42
759.38	44332.38
759.56	44141.92
759.75	43855.20
759.93	44051.81
760.12	43828.58
760.30	43879.78
760.48	43851.11
760.67	43804.00
760.85	43554.15
761.04	43584.87
761.22	43930.98
761.40	43797.86
761.59	43412.84
761.77	43302.25
761.96	43902.31
762.14	43586.92
762.32	42931.57
762.51	43160.94
762.69	43046.26
762.88	43406.70
763.06	43074.93
763.24	43410.79
763.43	43259.24
763.61	42483.06
763.80	43345.26
763.98	42444.15
764.16	42921.33
764.35	42442.10
764.53	42374.52
764.72	42583.41
764.90	42601.85
765.08	42777.97
765.27	42499.45
765.45	42341.75
765.63	42235.26
765.82	42216.83
766.00	41883.01
766.18	42462.58
766.37	42448.25
766.55	42362.23
766.74	42233.21
766.92	41979.26
767.10	41948.54
767.29	42317.18
767.47	41624.96
767.65	42139.00
767.84	41747.84
768.02	42022.27
768.20	41688.45
768.39	41975.17
768.57	41639.30
768.75	41520.52
768.94	41461.13
769.12	41581.96
769.30	41362.82
769.49	41547.14
769.67	41516.42
769.85	41155.98
770.04	41549.19
770.22	40977.81
770.40	41323.91
770.59	41117.07
770.77	41751.94
770.95	41037.20
771.14	41059.73
771.32	40691.09
771.50	40715.67
771.69	41110.92
771.87	41088.40
772.05	41104.78
772.24	40783.25
772.42	40701.33
772.60	40973.71
772.78	40828.30
772.97	41018.77
773.15	40725.91
773.33	40889.74
773.52	40840.59
773.70	40467.86
773.88	40408.47
774.07	40256.92
774.25	40396.18
774.43	40744.34
774.61	40664.47
774.80	40590.74
774.98	40824.21
775.16	40570.26
775.34	40514.97
775.53	40398.23
775.71	40674.71
775.89	40687.00
776.08	40586.64
776.26	40646.04
776.44	40707.47
776.62	40588.69
776.81	40646.04
776.99	40654.23
777.17	40625.56
777.35	40959.38
777.54	40934.80
777.72	40674.71
777.90	40807.83
778.08	41301.39
778.27	40760.72
778.45	41139.60
778.63	40959.38
778.81	40633.75
779.00	41389.45
779.18	41266.57
779.36	41454.98
779.54	41063.82
779.73	41057.68
779.91	41368.97
780.09	41629.06
780.27	41590.15
780.46	41256.33
780.64	41500.04
780.82	41364.87
781.00	41366.92
781.19	41706.88
781.37	41342.35
781.55	41371.02
781.73	41942.40
781.91	41321.87
782.10	41553.29
782.28	41411.98
782.46	41502.09
782.64	41637.25
782.82	41608.58
783.01	42085.76
783.19	41856.39
783.37	41901.44
783.55	41606.53
783.74	41989.50
783.92	41596.29
784.10	42157.44
784.28	41905.54
784.46	41526.66
784.64	41557.38
784.83	41796.99
785.01	42071.42
785.19	41389.45
785.37	41874.82
785.55	41909.63
785.74	41756.03
785.92	41485.70
786.10	41899.39
786.28	41842.05
786.46	41561.48
786.64	41670.02
786.83	41409.93
787.01	41766.27
787.19	41174.41
787.37	41633.16
787.55	41094.54
787.74	41270.67
787.92	41534.85
788.10	41393.54
788.28	41256.33
788.46	41506.18
788.64	41065.87
788.82	41346.44
789.01	41336.20
789.19	41428.36
789.37	41061.77
789.55	40932.75
789.73	40883.60
789.91	40807.83
790.09	41002.38
790.28	40715.67
790.46	40576.40
790.64	40779.15
790.82	40646.04
791.00	40197.53
791.18	40682.90
791.36	40766.87
791.55	40504.73
791.73	40308.12
791.91	39933.34
792.09	40129.95
792.27	40220.06
792.45	40256.92
792.63	40392.09
792.81	40132.00
793.00	40109.47
793.18	40045.98
793.36	40017.31
793.54	39855.52
793.72	39851.42
793.90	39597.48
794.08	39474.60
794.26	39706.02
794.44	39089.58
794.62	39232.94
794.81	39255.46
794.99	39329.19
795.17	38749.62
795.35	39067.05
795.53	38968.75
795.71	39372.20
795.89	38966.70
796.07	38602.16
796.25	38346.17
796.43	38796.72
796.61	38208.95
796.80	38546.87
796.98	38469.04
797.16	38383.03
797.34	38165.95
797.52	38045.12
797.70	38569.40
797.88	38122.94
798.06	38045.12
798.24	37795.26
798.42	37690.82
798.60	37854.65
798.78	37735.87
798.96	37389.77
799.14	37375.43
799.32	37770.69
799.51	37260.74
799.69	37465.54
799.87	37424.58
800.05	37154.25
800.23	37213.64
800.41	37053.90
800.59	36902.35
800.77	36845.01
800.95	36328.92
801.13	36746.70
801.31	36806.09
801.49	36648.40
801.67	36341.21
801.85	36290.01
802.03	36361.69
802.21	36136.41
802.39	36273.62
802.57	36306.39
802.75	35909.08
802.93	36113.88
803.11	35927.52
803.29	35694.05
803.47	35347.94
803.65	35646.94
803.83	35671.52
804.01	35720.67
804.19	35202.53
804.37	35141.10
804.55	35567.07
804.73	35319.27
804.91	35345.89
805.09	35569.12
805.27	35231.21
805.45	35190.25
805.63	35399.14
805.81	34854.38
805.99	34950.63
806.17	35251.69
806.35	34788.85
806.53	34244.09
806.71	34508.27
806.89	34272.76
807.07	34721.26
807.25	34522.61
807.43	34465.27
807.61	34207.22
807.79	34479.60
807.97	34162.17
808.15	33867.26
808.33	33992.19
808.51	34080.25
808.69	33904.12
808.87	33603.07
809.05	33750.52
809.23	33621.50
809.41	33680.89
809.59	33275.40
809.77	33351.17
809.95	33410.56
810.13	33443.33
810.31	33173.00
810.49	33117.70
810.67	33611.26
810.84	33211.91
811.02	32937.48
811.20	32771.60
811.38	33134.09
811.56	32577.04
811.74	33134.09
811.92	32570.90
812.10	33007.11
812.28	32640.53
812.46	32529.94
812.64	32402.96
812.82	32048.66
813.00	32638.48
813.18	32054.81
813.36	32198.16
813.53	32290.32
813.71	31956.50
813.89	32200.21
814.07	32126.49
814.25	32189.97
814.43	31682.08
814.61	31860.25
814.79	31895.07
814.97	31911.45
815.15	31917.59
815.33	31397.41
815.50	31419.94
815.68	31442.46
815.86	31688.22
816.04	31305.25
816.22	31241.76
816.40	31317.54
816.58	31106.60
816.76	30981.67
816.94	31082.02
817.11	31135.27
817.29	31045.16
817.47	31184.42
817.65	30821.93
817.83	31002.15
818.01	30408.24
818.19	30567.98
818.37	30697.00
818.54	30467.63
818.72	30076.47
818.90	30459.44
819.08	30369.33
819.26	30707.24
819.44	30191.16
819.62	30324.27
819.80	30311.99
819.97	30561.84
820.15	30121.52
820.33	30242.35
820.51	30324.27
820.69	29740.60
820.87	30293.55
821.05	30547.50
821.22	29906.49
821.40	29945.40
821.58	29783.61
821.76	29351.49
821.94	29513.28
822.12	29699.64
822.29	29544.00
822.47	29457.98
822.65	29591.10
822.83	29634.11
823.01	29382.21
823.19	29228.61
823.36	29210.18
823.54	29210.18
823.72	29275.71
823.90	29015.62
824.08	28837.45
824.25	29011.53
824.43	28593.74
824.61	28814.92
824.79	28706.38
824.97	28603.98
825.15	28978.76
825.32	28550.73
825.50	28653.13
825.68	28532.30
825.86	28749.39
826.04	28888.65
826.21	28644.94
826.39	28440.14
826.57	28323.41
826.75	28460.62
826.93	27903.57
827.10	28239.44
827.28	28384.85
827.46	28442.19
827.64	27928.15
827.81	28010.07
827.99	28079.70
828.17	28024.40
828.35	27946.58
828.53	27944.53
828.70	27891.29
828.88	27698.78
829.06	27819.61
829.24	27901.53
829.41	27539.04
829.59	27930.20
829.77	27618.91
829.95	27608.67
830.12	27440.73
830.30	27418.21
830.48	27539.04
830.66	27143.78
830.84	27698.78
831.01	26981.99
831.19	27516.51
831.37	27010.66
831.55	26988.13
831.72	26785.38
831.90	27242.08
832.08	27135.59
832.25	27174.50
832.43	27080.29
832.61	27033.19
832.79	26648.17
832.96	26922.60
833.14	27035.24
833.32	27004.52
833.50	26941.03
833.67	26832.49
833.85	26582.63
834.03	26463.85
834.20	26457.71
834.38	26588.78
834.56	26627.69
834.74	26363.50
834.91	26652.27
835.09	26515.05
835.27	26201.71
835.44	26087.03
835.62	25921.14
835.80	26097.27
835.98	26105.46
836.15	26250.86
836.33	26035.83
836.51	26058.35
836.68	25849.46
836.86	25982.58
837.04	26115.70
837.21	25798.26
837.39	25523.83
837.57	25859.70
837.75	25945.72
837.92	25824.89
838.10	25425.53
838.28	25161.34
838.45	25398.91
838.63	25390.72
838.81	25482.88
838.98	25347.71
839.16	25151.10
839.34	25527.93
839.51	25255.55
839.69	24899.20
839.87	25038.47
840.04	25642.62
840.22	25267.84
840.40	25370.24
840.57	24925.83
840.75	25196.16
840.93	24735.37
841.10	24825.48
841.28	25276.03
841.46	24862.34
841.63	25425.53
841.81	24714.89
841.98	25046.66
842.16	24710.79
842.34	24741.51
842.51	24718.98
842.69	25122.43
842.87	24612.49
843.04	24735.37
843.22	24606.34
843.40	24583.82
843.57	24837.76
843.75	24712.84
843.92	24635.02
844.10	24270.48
844.28	24372.88
844.45	24313.48
844.63	24403.60
844.81	24297.10
844.98	24487.56
845.16	24186.51
845.33	24432.27
845.51	24286.86
845.69	24206.99
845.86	23953.04
846.04	23803.54
846.21	23987.86
846.39	23817.88
846.57	23881.36
846.74	23531.16
846.92	23994.00
847.09	23803.54
847.27	23553.69
847.45	23756.44
847.62	23789.20
847.80	23778.97
847.97	23856.79
848.15	23572.12
848.32	23217.82
848.50	23656.09
848.68	23387.80
848.85	23205.53
849.03	23154.33
849.20	23002.78
849.38	23533.21
849.56	23381.66
849.73	23049.89
849.91	23447.19
850.08	23344.80
850.26	23088.80
850.43	23137.95
850.61	23160.48
850.78	22744.74
850.96	23150.24
851.14	23041.70
851.31	23322.27
851.49	22881.95
851.66	23115.42
851.84	23076.51
852.01	23002.78
852.19	22853.28
852.36	22773.41
852.54	22841.00
852.71	22820.52
852.89	22777.51
853.07	22701.73
853.24	22683.30
853.42	22464.17
853.59	22617.77
853.77	22468.27
853.94	22757.03
854.12	22507.18
854.29	22271.66
854.47	22552.23
854.64	22404.78
854.82	22537.90
854.99	22769.32
855.17	22322.86
855.34	22142.64
855.52	22105.77
855.69	22238.89
855.87	22419.11
856.04	21991.09
856.22	21980.85
856.39	22017.71
856.57	22013.62
856.74	22081.20
856.92	22322.86
857.09	21870.26
857.27	22212.27
857.44	22087.34
857.62	22089.39
857.79	21915.31
857.97	21753.52
858.14	21825.20
858.32	21896.88
858.49	21409.47
858.67	21757.62
858.84	21862.07
859.02	21745.33
859.19	21530.30
859.37	21706.42
859.54	21313.21
859.72	21595.83
859.89	21538.49
860.06	21882.55
860.24	21440.18
860.41	21638.84
860.59	21513.91
860.76	21548.73
860.94	21106.37
861.11	21276.35
861.29	21311.16
861.46	21145.28
861.64	21063.36
861.81	21227.20
861.98	21341.88
862.16	21122.75
862.33	20885.19
862.51	20950.72
862.68	21276.35
862.86	21094.08
863.03	21221.05
863.21	20760.26
863.38	20922.05
863.55	20719.30
863.73	20985.54
863.90	20739.78
864.08	20784.83
864.25	21059.26
864.43	20811.46
864.60	20745.92
864.77	20657.86
864.95	20754.12
865.12	20506.31
865.30	20604.61
865.47	20678.34
865.64	20375.24
865.82	20659.91
865.99	20305.61
866.17	20559.56
866.34	20403.91
866.51	20246.22
866.69	20612.81
866.86	20375.24
867.04	20278.99
867.21	20307.66
867.38	20324.04
867.56	20096.72
867.73	20420.30
867.91	20291.27
868.08	20104.91
868.25	19988.18
868.43	20104.91
868.60	20016.85
868.78	20094.67
868.95	20164.30
869.12	19904.21
869.30	19863.25
869.47	19889.87
869.64	19754.71
869.82	19701.46
869.99	19902.16
870.16	19750.61
870.34	19904.21
870.51	19812.05
870.69	19640.02
870.86	19496.66
871.03	19590.87
871.21	19705.56
871.38	19298.01
871.55	19564.25
871.73	19427.03
871.90	19285.72
872.07	19207.90
872.25	19357.40
872.42	19232.47
872.59	19373.78
872.77	19183.32
872.94	19138.27
873.11	19300.06
873.29	19138.27
873.46	18980.57
873.63	19078.88
873.81	18652.90
873.98	18878.18
874.15	18986.72
874.33	18669.28
874.50	18738.91
874.67	18994.91
874.85	18849.50
875.02	18783.97
875.19	18833.12
875.37	18704.10
875.54	18521.83
875.71	18679.52
875.88	18515.69
876.06	18501.35
876.23	18607.84
876.40	18480.87
876.58	18349.80
876.75	18233.07
876.92	18364.14
877.10	18331.37
877.27	18247.40
877.44	18095.85
877.61	18214.63
877.79	18228.97
877.96	18054.89
878.13	18308.84
878.31	18071.28
878.48	18013.93
878.65	18001.65
878.82	18040.56
879.00	18034.41
879.17	18345.70
879.34	18108.14
879.51	18138.86
879.69	17749.75
879.86	18073.32
880.03	17612.53
880.21	17561.33
880.38	17774.32
880.55	17882.86
880.72	17583.86
880.90	17721.07
881.07	17497.84
881.24	17620.72
881.41	17764.08
881.59	17323.77
881.76	17704.69
881.93	17551.09
882.10	17250.04
882.28	17358.58
882.45	17530.61
882.62	17524.47
882.79	17657.59
882.96	17035.00
883.14	17403.64
883.31	17319.67
883.48	17352.44
883.65	17428.21
883.83	17444.60
884.00	17143.55
884.17	17153.79
884.34	17221.37
884.51	16948.99
884.69	17151.74
884.86	17073.92
885.03	17213.18
885.20	17024.76
885.38	17086.20
885.55	16948.99
885.72	16815.87
885.89	16867.07
886.06	17030.91
886.24	16678.66
886.41	17100.54
886.58	17073.92
886.75	17231.61
886.92	16832.26
887.10	17151.74
887.27	16776.96
887.44	17035.00
887.61	16844.54
887.78	16928.51
887.95	16924.41
888.13	16733.95
888.30	16547.59
888.47	16473.86
888.64	16809.73
888.81	16680.71
888.99	16527.11
889.16	16416.52
889.33	16346.89
889.50	16541.44
889.67	16631.55
889.84	16346.89
890.01	16422.66
890.19	16449.28
890.36	16594.69
890.53	16336.65
890.70	16174.86
890.87	16178.95
891.04	16219.91
891.22	16166.67
891.39	16246.54
891.56	15978.25
891.73	16293.64
891.90	16103.18
892.07	16107.27
892.24	15968.01
892.42	15869.71
892.59	16021.26
892.76	16076.55
892.93	15855.37
893.10	16051.98
893.27	15955.72
893.44	15984.40
893.61	15783.70
893.79	15978.25
893.96	15720.21
894.13	15984.40
894.30	15871.76
894.47	15804.17
894.64	16017.16
894.81	15849.23
894.98	15857.42
895.15	15849.23
895.33	15703.82
895.50	15755.02
895.67	15806.22
895.84	15515.41
896.01	15886.09
896.18	15783.70
896.35	15683.34
896.52	15560.47
896.69	15712.02
896.86	15679.25
897.04	15802.13
897.21	15742.74
897.38	15709.97
897.55	15578.90
897.72	15822.61
897.89	15818.51
898.06	15882.00
898.23	15689.49
898.40	15560.47
898.57	15757.07
898.74	15736.59
898.91	15734.54
899.08	15904.53
899.26	15726.35
899.43	15619.86
899.60	15793.94
899.77	15943.44
899.94	15539.99
900.11	15644.43
900.28	15523.60
900.45	15535.89
900.62	15787.79
900.79	15755.02
900.96	15576.85
901.13	15365.91
901.30	15496.98
901.47	15308.57
901.64	15724.30
901.81	15705.87
901.98	15478.55
902.15	15689.49
902.32	15570.71
902.49	15564.56
902.66	15517.46
902.83	15568.66
903.01	15589.14
903.18	15496.98
903.35	15484.69
903.52	15609.62
903.69	15740.69
903.86	15775.50
904.03	15742.74
904.20	15533.84
904.37	15685.39
904.54	15640.34
904.71	15718.16
904.88	15558.42
905.05	15664.91
905.22	15716.11
905.39	15279.89
905.56	15415.06
905.73	15306.52
905.90	15572.75
906.07	15423.25
906.24	15673.10
906.41	15503.12
906.58	15574.80
906.75	15652.63
906.92	15527.70
907.09	15759.12
907.26	15443.73
907.43	15410.96
907.60	15419.16
907.77	15644.43
907.93	15408.92
908.10	15415.06
908.27	15587.09
908.44	15585.04
908.61	15415.06
908.78	15351.57
908.95	15619.86
909.12	15484.69
909.29	15339.29
909.46	15363.86
909.63	15259.42
909.80	15507.22
909.97	15277.85
910.14	15494.93
910.31	15257.37
910.48	15255.32
910.65	15333.14
910.82	15392.53
910.99	15200.02
911.16	15167.26
911.33	15249.18
911.50	15161.11
911.66	14984.99
911.83	15329.05
912.00	15015.71
912.17	15007.52
912.34	14999.32
912.51	14993.18
912.68	14821.15
912.85	15054.62
913.02	15218.46
913.19	14886.68
913.36	14896.92
913.53	15021.85
913.70	14831.39
913.86	15175.45
914.03	14808.86
914.20	14919.45
914.37	14724.90
914.54	14575.39
914.71	14573.35
914.88	14700.32
915.05	14397.22
915.22	14528.29
915.39	14673.70
915.55	14391.08
915.72	14407.46
915.89	14307.11
916.06	14524.19
916.23	14415.65
916.40	14475.04
916.57	14253.86
916.74	14278.44
916.91	14186.28
917.07	14237.48
917.24	14196.52
917.41	14305.06
917.58	14237.48
917.75	14206.76
917.92	14094.12
918.09	14149.42
918.26	14004.01
918.42	14006.06
918.59	13774.64
918.76	13756.21
918.93	13737.77
919.10	13801.26
919.27	13680.43
919.44	13750.06
919.60	13760.30
919.77	13569.84
919.94	13791.02
920.11	13455.15
920.28	13483.83
920.45	13606.70
920.61	13313.84
920.78	13279.03
920.95	13434.68
921.12	13186.87
921.29	13348.66
921.46	13160.25
921.62	13096.76
921.79	13178.68
921.96	13092.66
922.13	12848.96
922.30	12965.69
922.47	13008.70
922.63	12803.90
922.80	13035.32
922.97	12941.11
923.14	12572.48
923.31	12631.87
923.47	12619.58
923.64	12672.83
923.81	12586.82
923.98	12701.50
924.15	12488.51
924.32	12308.29
924.48	12445.51
924.65	12515.14
924.82	12361.54
924.99	12314.44
925.15	12140.36
925.32	12320.58
925.49	12101.45
925.66	11992.90
925.83	12080.97
925.99	11691.85
926.16	11999.05
926.33	12072.78
926.50	11792.20
926.67	11927.37
926.83	11781.96
927.00	11642.70
927.17	11575.12
927.34	11319.12
927.50	11630.41
927.67	11937.61
927.84	11777.87
928.01	11536.21
928.17	11517.78
928.34	11562.83
928.51	11347.79
928.68	11302.74
928.84	11308.88
929.01	11077.46
929.18	10923.87
929.35	10997.59
929.51	11136.85
929.68	10950.49
929.85	10823.51
930.02	10944.34
930.18	10776.41
930.35	10798.94
930.52	10569.57
930.69	10712.92
930.85	10782.56
931.02	10438.50
931.19	10528.61
931.36	10418.02
931.52	10555.23
931.69	10499.94
931.86	10424.16
932.02	10295.14
932.19	10119.01
932.36	10348.39
932.53	10200.93
932.69	10020.71
932.86	10071.91
933.03	10159.97
933.19	9824.11
933.36	10080.10
933.53	9836.39
933.70	9793.39
933.86	9779.05
934.03	9693.04
934.20	9682.80
934.36	9701.23
934.53	9506.67
934.70	9408.37
934.86	9314.16
935.03	9191.28
935.20	9215.86
935.36	9273.20
935.53	9162.61
935.70	9187.19
935.86	8945.53
936.03	8834.94
936.20	8662.91
936.36	8607.61
936.53	8644.48
936.70	8658.81
936.86	8769.40
937.03	8542.08
937.20	8339.33
937.36	8552.32
937.53	7950.21
937.70	8017.80
937.86	7991.17
938.03	7997.32
938.20	7978.89
938.36	7753.61
938.53	7810.95
938.70	7585.68
938.86	7645.07
939.03	7423.89
939.20	7384.98
939.36	7522.19
939.53	7258.00
939.70	7516.05
939.86	7067.54
940.03	6959.00
940.19	6768.54
940.36	6891.41
940.53	6913.94
940.69	6776.73
940.86	6655.90
941.03	6588.32
941.19	6662.04
941.36	6565.79
941.52	6596.51
941.69	6291.36
941.86	6242.21
942.02	6252.45
942.19	6080.42
942.35	6279.07
942.52	6055.84
942.69	5992.36
942.85	5975.97
943.02	6041.51
943.18	5961.64
943.35	5785.51
943.52	5687.21
943.68	5656.49
943.85	5703.59
944.01	5676.97
944.18	5568.43
944.35	5517.23
944.51	5552.04
944.68	5435.31
944.84	5654.44
945.01	5496.75
945.17	5498.80
945.34	5427.12
945.51	5519.28
945.67	5398.45
945.84	5283.76
946.00	5349.29
946.17	5351.34
946.33	5322.67
946.50	5431.21
946.67	5410.73
946.83	5283.76
947.00	5398.45
947.16	5273.52
947.33	5355.44
947.49	5382.06
947.66	5171.12
947.82	5330.86
947.99	5222.32
948.16	5271.47
948.32	5222.32
948.49	5232.56
948.65	5341.10
948.82	5279.66
948.98	5302.19
949.15	5144.50
949.31	5406.64
949.48	5371.82
949.64	5308.34
949.81	5466.03
949.97	5193.65
950.14	5402.54
950.30	5304.24
950.47	5369.77
950.63	5324.72
950.80	5320.62
950.96	5171.12
951.13	5230.51
951.30	5431.21
951.46	5447.60
951.63	5486.51
951.79	5353.39
951.96	5404.59
952.12	5377.97
952.29	5351.34
952.45	5357.49
952.62	5386.16
952.78	5459.88
952.94	5328.81
953.11	5402.54
953.27	5263.28
953.44	5513.13
953.60	5416.88
953.77	5500.84
953.93	5451.69
954.10	5468.08
954.26	5423.02
954.43	5418.93
954.59	5482.41
954.76	5566.38
954.92	5459.88
955.09	5312.43
955.25	5457.84
955.42	5431.21
955.58	5527.47
955.75	5556.14
955.91	5351.34
956.07	5359.53
956.24	5564.33
956.40	5406.64
956.57	5468.08
956.73	5470.12
956.90	5566.38
957.06	5443.50
957.23	5418.93
957.39	5332.91
957.56	5439.40
957.72	5279.66
957.88	5373.87
958.05	5599.15
958.21	5603.24
958.38	5455.79
958.54	5543.85
958.71	5500.84
958.87	5390.25
959.03	5461.93
959.20	5377.97
959.36	5392.30
959.53	5398.45
959.69	5369.77
959.85	5523.37
960.02	5279.66
960.18	5408.69
960.35	5341.10
960.51	5478.32
960.68	5283.76
960.84	5437.36
961.00	5566.38
961.17	5314.48
961.33	5509.04
961.50	5480.36
961.66	5588.91
961.82	5418.93
961.99	5425.07
962.15	5410.73
962.31	5312.43
962.48	5322.67
962.64	5539.76
962.81	5396.40
962.97	5496.75
963.13	5334.96
963.30	5449.64
963.46	5181.36
963.62	5296.05
963.79	5408.69
963.95	5455.79
964.12	5300.14
964.28	5453.74
964.44	5259.18
964.61	5429.17
964.77	5439.40
964.93	5449.64
965.10	5427.12
965.26	5195.70
965.42	5388.21
965.59	5324.72
965.75	5240.75
965.92	5332.91
966.08	5199.79
966.24	5277.62
966.41	5212.08
966.57	5324.72
966.73	5244.85
966.90	5195.70
967.06	5167.03
967.22	5160.88
967.39	5185.46
967.55	5257.14
967.71	5312.43
967.88	5226.42
968.04	5287.86
968.20	4915.12
968.37	5150.64
968.53	5056.43
968.69	5052.34
968.85	5269.42
969.02	5167.03
969.18	5109.68
969.34	5197.74
969.51	5210.03
969.67	5050.29
969.83	4951.99
970.00	5162.93
970.16	5158.83
970.32	5011.38
970.48	5210.03
970.65	5130.16
970.81	4990.90
970.97	5117.87
971.14	4949.94
971.30	5226.42
971.46	5035.96
971.63	4882.36
971.79	5144.50
971.95	4954.04
972.11	5015.48
972.28	4960.18
972.44	4929.46
972.60	4898.74
972.76	4978.61
972.93	4818.87
973.09	5011.38
973.25	4855.73
973.42	4902.84
973.58	4902.84
973.74	4855.73
973.90	4808.63
974.07	4825.01
974.23	4798.39
974.39	4784.06
974.55	4685.75
974.72	4833.21
974.88	4749.24
975.04	4839.35
975.20	4759.48
975.37	4845.49
975.53	4767.67
975.69	4710.33
975.85	4679.61
976.01	4757.43
976.18	4736.95
976.34	4612.03
976.50	4689.85
976.66	4661.18
976.83	4689.85
976.99	4661.18
977.15	4650.94
977.31	4503.48
977.47	4630.46
977.64	4538.30
977.80	4534.20
977.96	4630.46
978.12	4669.37
978.29	4523.96
978.45	4562.87
978.61	4466.62
978.77	4517.82
978.93	4532.15
979.10	4655.03
979.26	4464.57
979.42	4521.92
979.58	4419.52
979.74	4607.93
979.91	4466.62
980.07	4384.70
980.23	4390.84
980.39	4423.61
980.55	4329.41
980.71	4333.50
980.88	4345.79
981.04	4349.89
981.20	4392.89
981.36	4282.30
981.52	4374.46
981.68	4272.06
981.85	4388.80
982.01	4272.06
982.17	4233.15
982.33	4374.46
982.49	4382.65
982.65	4200.38
982.82	4261.82
982.98	4206.53
983.14	4206.53
983.30	4263.87
983.46	4290.49
983.62	4222.91
983.79	4136.90
983.95	4136.90
984.11	4032.45
984.27	4202.43
984.43	4108.23
984.59	4229.06
984.75	4179.90
984.91	4118.47
985.08	4194.24
985.24	4087.75
985.40	4042.69
985.56	4177.86
985.72	4059.07
985.88	4188.10
986.04	4022.21
986.20	4005.83
986.37	4048.83
986.53	4065.22
986.69	3995.59
986.85	3989.44
987.01	4132.80
987.17	4024.26
987.33	3979.20
987.49	3915.72
987.65	4026.31
987.82	4081.60
987.98	3825.61
988.14	4085.70
988.30	3946.44
988.46	3936.20
988.62	3923.91
988.78	3958.72
988.94	3841.99
989.10	3868.61
989.26	3839.94
989.42	3755.97
989.59	3882.95
989.75	3768.26
989.91	3833.80
990.07	3723.21
990.23	3629.00
990.39	3790.79
990.55	3895.24
990.71	3796.93
990.87	3784.65
991.03	3862.47
991.19	3739.59
991.35	3745.73
991.51	3839.94
991.67	3770.31
991.83	3680.20
992.00	3708.87
992.16	3862.47
992.32	3719.11
992.48	3755.97
992.64	3657.67
992.80	3629.00
992.96	3645.38
993.12	3696.58
993.28	3715.02
993.44	3645.38
993.60	3712.97
993.76	3606.47
993.92	3784.65
994.08	3676.10
994.24	3522.51
994.40	3526.60
994.56	3633.10
994.72	3590.09
994.88	3487.69
995.04	3622.86
995.20	3538.89
995.36	3489.74
995.52	3620.81
995.68	3534.79
995.84	3442.64
996.00	3559.37
996.16	3514.31
996.32	3409.87
996.48	3479.50
996.64	3633.10
996.80	3446.73
996.96	3532.75
997.12	3452.88
997.28	3356.62
997.44	3356.62
997.60	3469.26
997.76	3434.44
997.92	3403.72
998.08	3434.44
998.24	3350.48
998.40	3479.50
998.56	3344.33
998.72	3350.48
998.88	3207.12
999.04	3291.09
999.20	3352.52
999.36	3297.23
999.52	3383.24
999.68	3291.09
999.84	3352.52
1000.00	3325.90
1000.16	3311.57
1000.32	3303.37
1000.48	3315.66
1000.64	3268.56
1000.80	3096.53
1000.95	3131.34
1001.11	3256.27
1001.27	3207.12
1001.43	3295.18
1001.59	3139.54
1001.75	3153.87
1001.91	3184.59
1002.07	3106.77
1002.23	3035.09
1002.39	3114.96
1002.55	3106.77
1002.71	3100.62
1002.87	3176.40
1003.03	3121.10
1003.19	3104.72
1003.34	3170.26
1003.50	3006.42
1003.66	3141.58
1003.82	3131.34
1003.98	3024.85
1004.14	3078.10
1004.30	2934.74
1004.46	2910.16
1004.62	3033.04
1004.78	3026.90
1004.94	3012.56
1005.09	3051.47
1005.25	3059.67
1005.41	2951.12
1005.57	2969.55
1005.73	2992.08
1005.89	2971.60
1006.05	3012.56
1006.21	3033.04
1006.37	2940.88
1006.52	2889.68
1006.68	2883.54
1006.84	2959.31
1007.00	2852.82
1007.16	2924.50
1007.32	2883.54
1007.48	2895.83
1007.64	2912.21
1007.79	2942.93
1007.95	2826.20
1008.11	2936.79
1008.27	2883.54
1008.43	2711.51
1008.59	2846.68
1008.75	2924.50
1008.91	2879.44
1009.06	2854.87
1009.22	2897.88
1009.38	2887.64
1009.54	2854.87
1009.70	2752.47
1009.86	2867.16
1010.01	2815.96
1010.17	2723.80
1010.33	2762.71
1010.49	2711.51
1010.65	2791.38
1010.81	2795.48
1010.96	2762.71
1011.12	2746.33
1011.28	2680.79
1011.44	2750.42
1011.60	2846.68
1011.76	2639.83
1011.91	2738.13
1012.07	2670.55
1012.23	2582.49
1012.39	2625.50
1012.55	2611.16
1012.71	2617.30
1012.86	2609.11
1013.02	2678.74
1013.18	2641.88
1013.34	2559.96
1013.50	2682.84
1013.65	2621.40
1013.81	2637.78
1013.97	2613.21
1014.13	2590.68
1014.29	2625.50
1014.44	2639.83
1014.60	2584.54
1014.76	2613.21
1014.92	2490.33
1015.07	2570.20
1015.23	2619.35
1015.39	2570.20
1015.55	2484.19
1015.71	2629.59
1015.86	2555.86
1016.02	2516.95
1016.18	2516.95
1016.34	2584.54
1016.49	2551.77
1016.65	2535.39
1016.81	2504.67
1016.97	2457.56
1017.12	2525.15
1017.28	2463.71
1017.44	2400.22
1017.60	2478.04
1017.75	2430.94
1017.91	2453.47
1018.07	2527.19
1018.23	2496.47
1018.38	2361.31
1018.54	2473.95
1018.70	2457.56
1018.86	2445.27
1019.01	2377.69
1019.17	2367.45
1019.33	2451.42
1019.49	2349.02
1019.64	2408.41
1019.80	2420.70
1019.96	2408.41
1020.12	2420.70
1020.27	2359.26
1020.43	2332.64
1020.59	2418.65
1020.74	2373.60
1020.90	2373.60
1021.06	2306.01
1021.22	2375.64
1021.37	2324.44
1021.53	2316.25
1021.69	2312.16
1021.84	2240.48
1022.00	2265.05
1022.16	2322.40
1022.31	2289.63
1022.47	2336.73
1022.63	2338.78
1022.79	2224.09
1022.94	2224.09
1023.10	2303.96
1023.26	2203.61
1023.41	2248.67
1023.57	2172.89
1023.73	2252.77
1023.88	2271.20
1024.04	2256.86
1024.20	2164.70
1024.35	2207.71
1024.51	2271.20
1024.67	2269.15
1024.82	2211.81
1024.98	2179.04
1025.14	2248.67
1025.29	2209.76
1025.45	2201.57
1025.61	2220.00
1025.76	2162.66
1025.92	2119.65
1026.08	2275.29
1026.23	2164.70
1026.39	2252.77
1026.55	2121.70
1026.70	2197.47
1026.86	2195.42
1027.02	2215.90
1027.17	2197.47
1027.33	2168.80
1027.48	2140.13
1027.64	2125.79
1027.80	2080.74
1027.95	2234.33
1028.11	2099.17
1028.27	2121.70
1028.42	2181.09
1028.58	2158.56
1028.73	2033.63
1028.89	2113.50
1029.05	2207.71
1029.20	2131.94
>>>>>End Processed Spectral Data<<<<<
