SpectraSuite Data File
++++++++++++++++++++++++++++++++++++
Date: Fri Jun 02 14:44:37 CEST 2017
User: INFO_000
Dark Spectrum Present: No
Reference Spectrum Present: No
Number of Sampled Component Spectra: 1
Spectrometers: USB4H00879
Integration Time (usec): 80000 (USB4H00879)
Spectra Averaged: 1 (USB4H00879)
Boxcar Smoothing: 0 (USB4H00879)
Correct for Electrical Dark: No (USB4H00879)
Strobe/Lamp Enabled: No (USB4H00879)
Correct for Detector Non-linearity: No (USB4H00879)
Correct for Stray Light: No (USB4H00879)
Number of Pixels in Processed Spectrum: 3648
>>>>>Begin Processed Spectral Data<<<<<
345.13	1286.12
345.34	1286.12
345.56	1286.12
345.78	1368.04
345.99	1245.16
346.21	1771.49
346.42	1744.87
346.64	1640.42
346.86	1724.39
347.07	1656.81
347.29	1691.62
347.50	1574.89
347.72	1689.57
347.94	1757.16
348.15	1533.93
348.37	1542.12
348.59	1687.53
348.80	1701.86
349.02	1738.73
349.23	1855.46
349.45	1769.44
349.67	1853.41
349.88	1843.17
350.10	1863.65
350.31	1832.93
350.53	1748.97
350.75	1920.99
350.96	1742.82
351.18	1845.22
351.39	1849.32
351.61	1847.27
351.82	1918.95
352.04	1851.36
352.26	1816.55
352.47	1888.23
352.69	1886.18
352.90	1751.01
353.12	1814.50
353.34	1785.83
353.55	1949.67
353.77	1900.52
353.98	1869.80
354.20	1728.49
354.41	1873.89
354.63	1898.47
354.85	1970.15
355.06	1832.93
355.28	1781.73
355.49	1841.12
355.71	1867.75
355.92	1931.23
356.14	1953.76
356.35	1845.22
356.57	1888.23
356.79	1976.29
357.00	1853.41
357.22	1916.90
357.43	1841.12
357.65	2074.59
357.86	1861.60
358.08	1869.80
358.29	1935.33
358.51	1925.09
358.72	1974.24
358.94	1886.18
359.16	2000.87
359.37	1964.00
359.59	1847.27
359.80	2045.92
360.02	1947.62
360.23	1929.19
360.45	2000.87
360.66	1902.56
360.88	1939.43
361.09	1834.98
361.31	1945.57
361.52	1961.95
361.74	1923.04
361.95	2082.78
362.17	1988.58
362.38	2109.41
362.60	2002.91
362.81	1888.23
363.03	1970.15
363.24	2013.15
363.46	2072.54
363.67	2021.35
363.89	2009.06
364.10	1974.24
364.32	1994.72
364.53	2007.01
364.75	1892.32
364.96	2084.83
365.18	2041.82
365.39	2015.20
365.61	1986.53
365.82	2058.21
366.04	1982.43
366.25	1929.19
366.47	2009.06
366.68	2009.06
366.90	2047.97
367.11	2125.79
367.33	2158.56
367.54	2082.78
367.76	2013.15
367.97	2125.79
368.19	2019.30
368.40	2074.59
368.62	1941.47
368.83	1929.19
369.05	2074.59
369.26	2019.30
369.48	2015.20
369.69	1974.24
369.91	2058.21
370.12	2062.30
370.33	2109.41
370.55	1988.58
370.76	2076.64
370.98	2131.94
371.19	2056.16
371.41	2035.68
371.62	1953.76
371.84	1982.43
372.05	2099.17
372.27	2078.69
372.48	2107.36
372.69	2099.17
372.91	2058.21
373.12	2162.66
373.34	2111.46
373.55	2076.64
373.77	2125.79
373.98	2121.70
374.20	2142.18
374.41	2275.29
374.62	2148.32
374.84	2207.71
375.05	2103.26
375.27	2160.61
375.48	2117.60
375.70	2224.09
375.91	2183.13
376.12	2306.01
376.34	2156.51
376.55	2203.61
376.77	2084.83
376.98	2111.46
377.19	2113.50
377.41	2099.17
377.62	2248.67
377.84	2226.14
378.05	2330.59
378.27	2174.94
378.48	2330.59
378.69	2336.73
378.91	2346.97
379.12	2248.67
379.34	2277.34
379.55	2279.39
379.76	2191.33
379.98	2138.08
380.19	2250.72
380.41	2291.68
380.62	2277.34
380.83	2310.11
381.05	2138.08
381.26	2422.75
381.47	2260.96
381.69	2314.20
381.90	2416.60
382.12	2314.20
382.33	2277.34
382.54	2396.12
382.76	2263.01
382.97	2277.34
383.19	2271.20
383.40	2426.84
383.61	2336.73
383.83	2215.90
384.04	2404.32
384.25	2412.51
384.47	2312.16
384.68	2363.36
384.89	2353.12
385.11	2375.64
385.32	2228.19
385.54	2297.82
385.75	2334.68
385.96	2484.19
386.18	2435.03
386.39	2508.76
386.60	2351.07
386.82	2492.38
387.03	2398.17
387.24	2578.39
387.46	2359.26
387.67	2473.95
387.88	2494.43
388.10	2473.95
388.31	2437.08
388.52	2541.53
388.74	2439.13
388.95	2525.15
389.16	2527.19
389.38	2519.00
389.59	2578.39
389.80	2656.22
390.02	2547.67
390.23	2629.59
390.44	2566.10
390.66	2478.04
390.87	2592.73
391.08	2574.30
391.30	2770.90
391.51	2572.25
391.72	2721.75
391.94	2740.18
392.15	2693.08
392.36	2635.74
392.58	2615.26
392.79	2658.26
393.00	2680.79
393.22	2789.33
393.43	2785.24
393.64	2736.09
393.85	2703.32
394.07	2645.98
394.28	2662.36
394.49	2742.23
394.71	2801.62
394.92	2852.82
395.13	2713.56
395.35	2795.48
395.56	2840.53
395.77	2801.62
395.98	2809.81
396.20	2820.05
396.41	2781.14
396.62	2904.02
396.84	2824.15
397.05	2789.33
397.26	2803.67
397.47	2940.88
397.69	2805.72
397.90	2977.75
398.11	2904.02
398.32	2840.53
398.54	2834.39
398.75	2924.50
398.96	2912.21
399.18	2973.65
399.39	2994.13
399.60	3047.38
399.81	3022.80
400.03	2861.01
400.24	3114.96
400.45	2969.55
400.66	3059.67
400.88	2994.13
401.09	3090.38
401.30	3100.62
401.51	3168.21
401.73	3262.41
401.94	3084.24
402.15	3176.40
402.36	3168.21
402.58	3141.58
402.79	3106.77
403.00	3194.83
403.21	3223.50
403.43	3219.41
403.64	3254.22
403.85	3043.28
404.06	3207.12
404.27	3166.16
404.49	3264.46
404.70	3256.27
404.91	3401.68
405.12	3213.26
405.34	3248.08
405.55	3491.79
405.76	3176.40
405.97	3358.67
406.19	3362.76
406.40	3272.65
406.61	3360.72
406.82	3321.81
407.03	3385.29
407.25	3237.84
407.46	3463.12
407.67	3377.10
407.88	3542.99
408.09	3477.45
408.31	3448.78
408.52	3608.52
408.73	3336.14
408.94	3350.48
409.15	3422.16
409.37	3528.65
409.58	3465.16
409.79	3532.75
410.00	3606.47
410.21	3422.16
410.43	3526.60
410.64	3422.16
410.85	3436.49
411.06	3551.18
411.27	3489.74
411.48	3645.38
411.70	3532.75
411.91	3407.82
412.12	3581.90
412.33	3547.08
412.54	3780.55
412.76	3674.06
412.97	3643.34
413.18	3583.95
413.39	3620.81
413.60	3678.15
413.81	3735.50
414.03	3633.10
414.24	3616.71
414.45	3827.65
414.66	3571.66
414.87	3776.45
415.08	3809.22
415.30	3794.89
415.51	3819.46
415.72	3674.06
415.93	3649.48
416.14	3839.94
416.35	3831.75
416.56	3846.09
416.78	3796.93
416.99	3786.69
417.20	3837.89
417.41	3921.86
417.62	3930.05
417.83	3925.96
418.04	3911.62
418.26	3932.10
418.47	3854.28
418.68	4040.64
418.89	4059.07
419.10	4067.27
419.31	3991.49
419.52	4081.60
419.73	3932.10
419.95	4130.75
420.16	3925.96
420.37	3962.82
420.58	4128.70
420.79	3973.06
421.00	4024.26
421.21	4110.27
421.42	4071.36
421.63	4227.01
421.85	4063.17
422.06	4138.94
422.27	4294.59
422.48	4265.92
422.69	4188.10
422.90	4251.58
423.11	4255.68
423.32	4298.69
423.53	4396.99
423.75	4421.56
423.96	4501.44
424.17	4304.83
424.38	4661.18
424.59	4446.14
424.80	4495.29
425.01	4390.84
425.22	4444.09
425.43	4472.76
425.64	4526.01
425.85	4603.83
426.06	4546.49
426.28	4575.16
426.49	4495.29
426.70	4497.34
426.91	4589.50
427.12	4779.96
427.33	4685.75
427.54	4759.48
427.75	4618.17
427.96	4767.67
428.17	4753.34
428.38	4820.92
428.59	4812.73
428.80	4679.61
429.01	4892.60
429.23	4849.59
429.44	5095.35
429.65	4964.28
429.86	5078.96
430.07	4800.44
430.28	4880.31
430.49	4962.23
430.70	5158.83
430.91	5181.36
431.12	5107.63
431.33	5113.78
431.54	5271.47
431.75	5111.73
431.96	5312.43
432.17	5064.63
432.38	5158.83
432.59	5337.01
432.80	5320.62
433.01	5275.57
433.22	5341.10
433.43	5392.30
433.64	5314.48
433.85	5271.47
434.06	5287.86
434.27	5267.38
434.49	5461.93
434.70	5466.03
434.91	5586.86
435.12	5588.91
435.33	5562.28
435.54	5527.47
435.75	5363.63
435.96	5732.26
436.17	5488.56
436.38	5564.33
436.59	5623.72
436.80	5566.38
437.01	5842.85
437.22	5771.18
437.43	5713.83
437.64	5541.80
437.85	5779.37
438.06	5924.77
438.27	5640.11
438.48	5836.71
438.69	5857.19
438.90	5912.49
439.11	5719.98
439.32	5975.97
439.53	5883.81
439.74	5965.73
439.95	6035.36
440.16	5982.12
440.37	5961.64
440.57	5875.62
440.78	6016.93
440.99	6059.94
441.20	5967.78
441.41	5900.20
441.62	5986.21
441.83	6109.09
442.04	6088.61
442.25	6043.56
442.46	6117.28
442.67	6258.59
442.88	6600.60
443.09	5975.97
443.30	6150.05
443.51	6283.17
443.72	6399.90
443.93	6113.19
444.14	6385.57
444.35	6203.30
444.56	6221.73
444.77	6473.63
444.98	6371.23
445.19	6481.82
445.40	6457.25
445.61	6438.81
445.81	6512.54
446.02	6559.64
446.23	6412.19
446.44	6340.51
446.65	6479.77
446.86	6496.16
447.07	6721.43
447.28	6899.61
447.49	6659.99
447.70	6483.87
447.91	6784.92
448.12	6743.96
448.33	6903.70
448.54	6807.45
448.74	6621.08
448.95	6825.88
449.16	6643.61
449.37	7040.92
449.58	6827.93
449.79	6959.00
450.00	6764.44
450.21	6711.19
450.42	7126.93
450.63	7153.55
450.84	6950.81
451.05	7128.98
451.25	6946.71
451.46	7106.45
451.67	7106.45
451.88	7409.55
452.09	7133.08
452.30	7036.82
452.51	7171.99
452.72	7389.07
452.93	7446.41
453.13	7255.95
453.34	7178.13
453.55	7389.07
453.76	7321.49
453.97	7696.27
454.18	7466.89
454.39	7370.64
454.60	7557.00
454.81	7550.86
455.01	7651.21
455.22	7356.30
455.43	7669.64
455.64	7790.47
455.85	7882.63
456.06	7966.60
456.27	7798.66
456.48	7694.22
456.68	7841.67
456.89	8056.71
457.10	8195.97
457.31	7952.26
457.52	8093.57
457.73	8210.31
457.94	8370.05
458.14	7991.17
458.35	8523.65
458.56	8300.42
458.77	8245.12
458.98	8357.76
459.19	8249.22
459.39	8503.17
459.60	8593.28
459.81	8488.83
460.02	8761.21
460.23	8644.48
460.44	8736.63
460.65	8802.17
460.85	8841.08
461.06	8808.31
461.27	8755.07
461.48	9025.40
461.69	9242.48
461.89	8810.36
462.10	9105.27
462.31	8943.48
462.52	8912.76
462.73	9158.52
462.94	9109.36
463.14	8966.01
463.35	9260.91
463.56	9781.10
463.77	9592.69
463.98	9445.23
464.18	9480.05
464.39	9580.40
464.60	9658.22
464.81	9711.47
465.02	9807.72
465.23	10071.91
465.43	9604.97
465.64	10055.53
465.85	9965.42
466.06	9795.43
466.27	10289.00
466.47	10215.27
466.68	10225.51
466.89	10149.73
467.10	10334.05
467.30	9895.78
467.51	10350.43
467.72	10516.32
467.93	10338.15
468.14	10700.64
468.34	10508.13
468.55	10610.53
468.76	10719.07
468.97	10559.33
469.17	11122.52
469.38	10807.13
469.59	11001.69
469.80	10956.63
470.01	10821.47
470.21	10970.97
470.42	11149.14
470.63	11169.62
470.84	11255.64
471.04	11333.46
471.25	11272.02
471.46	11554.64
471.67	11657.04
471.87	11689.81
472.08	11677.52
472.29	11974.47
472.50	11456.34
472.70	11784.01
472.91	12031.82
473.12	12046.15
473.33	11894.60
473.53	12236.61
473.74	12253.00
473.95	12345.16
474.16	12437.31
474.36	12441.41
474.57	12513.09
474.78	12775.23
474.99	12820.28
475.19	12783.42
475.40	12906.30
475.61	12812.09
475.81	12922.68
476.02	13182.77
476.23	13205.30
476.44	13127.48
476.64	13399.86
476.85	13817.65
477.06	13526.83
477.27	13723.44
477.47	13903.66
477.68	13915.95
477.89	13936.43
478.09	13838.12
478.30	14085.93
478.51	14020.39
478.71	14186.28
478.92	14368.55
479.13	14303.01
479.34	14550.82
479.54	14745.38
479.75	14741.28
479.96	14483.24
480.16	14831.39
480.37	14858.01
480.58	15085.34
480.78	15161.11
480.99	15300.37
481.20	15435.54
481.41	15359.77
481.61	15568.66
481.82	15599.38
482.03	15488.79
482.23	15685.39
482.44	15986.44
482.65	16137.99
482.85	16221.96
483.06	16123.66
483.27	16115.47
483.47	16078.60
483.68	16480.00
483.89	16588.55
484.09	16467.72
484.30	16561.92
484.51	16807.68
484.71	16967.42
484.92	16647.94
485.13	16977.66
485.33	16981.76
485.54	17082.11
485.75	17432.31
485.95	17473.27
486.16	17284.86
486.37	17655.54
486.57	17581.81
486.78	17731.31
486.98	17667.83
487.19	17755.89
487.40	17964.78
487.60	17846.00
487.81	18185.96
488.02	18269.93
488.22	18157.29
488.43	18532.07
488.64	18757.35
488.84	18712.29
489.05	18906.85
489.25	18652.90
489.46	19232.47
489.67	18933.47
489.87	19187.42
490.08	19316.44
490.29	19455.70
490.49	19775.19
490.70	19506.90
490.90	19576.53
491.11	19674.84
491.32	19672.79
491.52	19883.73
491.73	19844.82
491.94	19941.07
492.14	19898.06
492.35	20354.76
492.55	20668.10
492.76	20473.54
492.97	20795.07
493.17	20815.55
493.38	20932.29
493.58	20795.07
493.79	21065.41
494.00	20969.15
494.20	21038.78
494.41	21374.65
494.61	21163.71
494.82	21272.25
495.02	21421.75
495.23	21477.05
495.44	21593.78
495.64	21864.11
495.85	21769.91
496.05	22011.57
496.26	21749.43
496.47	22541.99
496.67	22294.19
496.88	22331.05
497.08	21976.75
497.29	22556.33
497.49	22597.29
497.70	22849.19
497.91	22476.46
498.11	22732.45
498.32	23244.45
498.52	22974.11
498.73	23238.30
498.93	23410.33
499.14	23074.46
499.34	23303.84
499.55	23543.45
499.76	23373.47
499.96	23447.19
500.17	23668.37
500.37	23907.99
500.58	23998.10
500.78	23682.71
500.99	23975.57
501.19	24180.37
501.40	24051.34
501.60	24086.16
501.81	24114.83
502.02	24462.99
502.22	24503.95
502.43	24399.50
502.63	24436.36
502.84	24555.15
503.04	24577.67
503.25	24637.06
503.45	24600.20
503.66	24864.39
503.86	24583.82
504.07	25314.94
504.27	24784.52
504.48	25198.21
504.68	25126.53
504.89	25251.45
505.09	25106.05
505.30	25433.72
505.50	25357.95
505.71	25368.19
505.91	25841.27
506.12	25624.18
506.32	25769.59
506.53	25591.42
506.73	25769.59
506.94	25835.13
507.14	25894.52
507.35	25917.04
507.55	26037.87
507.76	26121.84
507.96	26089.07
508.17	25933.43
508.37	26226.29
508.58	26199.66
508.78	26418.80
508.99	26324.59
509.19	26484.33
509.40	26418.80
509.60	26379.89
509.81	26693.22
510.01	26580.59
510.22	26410.60
510.42	26562.15
510.63	26900.07
510.83	26826.34
511.04	26601.07
511.24	26953.32
511.44	26627.69
511.65	26666.60
511.85	26799.72
512.06	26930.79
512.26	27121.25
512.47	27356.77
512.67	27254.37
512.88	27305.57
513.08	27014.76
513.29	27520.60
513.49	27158.11
513.69	27225.70
513.90	27448.93
514.10	27428.45
514.31	27481.69
514.51	27625.05
514.72	27270.75
514.92	27502.17
515.13	27633.24
515.33	27676.25
515.53	27731.54
515.74	27942.49
515.94	28030.55
516.15	27950.68
516.35	27932.25
516.56	27864.66
516.76	28065.36
516.96	27993.68
517.17	28347.98
517.37	28120.66
517.58	28378.70
517.78	28388.94
517.99	28491.34
518.19	28632.65
518.39	28565.07
518.60	28948.04
518.80	28395.09
519.01	28806.73
519.21	28806.73
519.41	29032.00
519.62	28724.81
519.82	29118.02
520.03	29007.43
520.23	28937.80
520.43	29197.89
520.64	29552.19
520.84	29539.90
521.05	29353.54
521.25	29756.99
521.45	29517.37
521.66	29707.83
521.86	29546.05
522.07	29634.11
522.27	29711.93
522.47	29650.49
522.68	30027.32
522.88	29867.58
523.08	29951.54
523.29	30105.14
523.49	30154.29
523.70	30436.91
523.90	30672.43
524.10	30473.78
524.31	30598.70
524.51	30469.68
524.71	30920.23
524.92	30584.37
525.12	31163.94
525.33	30856.75
525.53	30670.38
525.73	31469.09
525.94	31512.10
526.14	31389.22
526.34	31458.85
526.55	31520.29
526.75	31759.90
526.95	31753.76
527.16	31602.21
527.36	31972.89
527.56	31890.97
527.77	32044.57
527.97	31970.84
528.17	32136.73
528.38	32286.23
528.58	32114.20
528.78	32587.28
528.99	32628.24
529.19	32917.00
529.39	32155.16
529.60	33091.08
529.80	32957.96
530.00	33179.14
530.21	33238.53
530.41	33263.11
530.61	33338.88
530.82	33580.54
531.02	33592.83
531.22	33320.45
531.43	33508.86
531.63	33748.48
531.83	34153.97
532.04	34575.86
532.24	33719.81
532.44	34694.64
532.64	34274.80
532.85	34184.69
533.05	34448.88
533.25	34440.69
533.46	34457.07
533.66	34498.03
533.86	34661.87
534.07	35141.10
534.27	35139.05
534.47	35010.03
534.67	35319.27
534.88	35446.24
535.08	35329.51
535.28	35767.77
535.49	35749.34
535.69	35884.51
535.89	36144.60
536.09	35919.32
536.30	36328.92
536.50	36140.50
536.70	36320.73
536.91	36335.06
537.11	36482.52
537.31	36455.89
537.51	36703.70
537.72	36924.88
537.92	37041.61
538.12	37422.53
538.32	37078.47
538.53	37000.65
538.73	37121.48
538.93	37086.67
539.13	37574.08
539.34	37338.57
539.54	37537.22
539.74	38053.31
539.94	37578.18
540.15	37754.30
540.35	38036.92
540.55	37848.51
540.75	37987.77
540.96	38016.44
541.16	38235.58
541.36	37971.39
541.56	38563.25
541.77	38467.00
541.97	38540.72
542.17	38827.44
542.37	38884.78
542.58	38870.45
542.78	38909.36
542.98	38870.45
543.18	39032.24
543.38	39628.20
543.59	38974.89
543.79	39212.46
543.99	39214.51
544.19	39681.44
544.40	39691.68
544.60	39701.92
544.80	39630.24
545.00	39800.22
545.20	40138.14
545.41	39755.17
545.61	39771.55
545.81	40150.43
546.01	40064.41
546.21	39943.58
546.42	40256.92
546.62	40557.97
546.82	39933.34
547.02	40383.90
547.22	40562.07
547.43	40308.12
547.63	40539.54
547.83	40455.57
548.03	40400.28
548.23	40596.88
548.44	40723.86
548.64	40832.40
548.84	40502.68
549.04	40773.01
549.24	40998.29
549.45	41631.11
549.65	40754.58
549.85	41338.25
550.05	41354.63
550.25	40889.74
550.45	41692.55
550.66	41469.32
550.86	41123.21
551.06	41690.50
551.26	41385.35
551.46	41354.63
551.66	42102.14
551.87	41618.82
552.07	41768.32
552.27	41880.96
552.47	41395.59
552.67	42161.53
552.87	41559.43
553.07	42003.84
553.28	41833.86
553.48	42159.48
553.68	41962.88
553.88	42116.48
554.08	42163.58
554.28	42210.68
554.48	41629.06
554.69	42343.80
554.89	42327.42
555.09	41866.63
555.29	42302.84
555.49	42227.07
555.69	42540.41
555.89	42364.28
556.10	42524.02
556.30	42179.96
556.50	42401.14
556.70	42274.17
556.90	42589.56
557.10	42888.56
557.30	42798.45
557.50	42472.82
557.70	42581.37
557.91	42935.66
558.11	42657.14
558.31	42792.31
558.51	42915.19
558.71	42755.44
558.91	42710.39
559.11	42642.81
559.31	42816.88
559.51	42526.07
559.72	43095.41
559.92	43076.97
560.12	42806.64
560.32	43406.70
560.52	42800.50
560.72	43408.75
560.92	43140.46
561.12	43224.43
561.32	43238.76
561.52	42947.95
561.72	43867.49
561.93	42739.06
562.13	43119.98
562.33	43443.56
562.53	43306.35
562.73	43179.37
562.93	43081.07
563.13	43242.86
563.33	43451.75
563.53	43681.13
563.73	43251.05
563.93	43443.56
564.13	43906.40
564.33	43492.71
564.53	43472.23
564.74	43468.14
564.94	43255.15
565.14	43666.79
565.34	43304.30
565.54	44076.38
565.74	43617.64
565.94	43885.92
566.14	43816.29
566.34	43574.63
566.54	44291.42
566.74	43746.66
566.94	44090.72
567.14	43957.60
567.34	43656.55
567.54	43853.15
567.74	44086.62
567.94	43697.51
568.14	43990.37
568.34	44324.19
568.54	44244.32
568.74	44758.36
568.94	44250.46
569.14	44209.50
569.34	44653.91
569.54	44393.82
569.75	44412.25
569.95	44272.99
570.15	44672.34
570.35	44588.38
570.55	44340.57
570.75	44434.78
570.95	44602.71
571.15	44664.15
571.35	44942.67
571.55	44897.62
571.75	44328.28
571.95	44725.59
572.15	45086.03
572.35	45206.86
572.55	44803.41
572.75	44946.77
572.95	45124.94
573.15	45026.64
573.35	45243.73
573.55	45096.27
573.75	45167.95
573.95	45534.54
574.15	45284.68
574.35	45622.60
574.55	45808.96
574.75	45374.80
574.95	45509.96
575.15	45270.35
575.34	45579.59
575.54	45708.61
575.74	46052.67
575.94	45757.77
576.14	45671.75
576.34	46028.10
576.54	46048.58
576.74	45917.51
576.94	45843.78
577.14	45995.33
577.34	46581.05
577.54	46366.01
577.74	46658.87
577.94	46535.99
578.14	46486.84
578.34	46411.07
578.54	46099.78
578.74	46316.86
578.94	47134.00
579.14	46669.11
579.34	46634.30
579.54	46564.67
579.74	47371.57
579.94	47068.47
580.13	47377.71
580.33	47232.30
580.53	47500.59
580.73	47289.65
580.93	47543.59
581.13	47367.47
581.33	47543.59
581.53	47336.75
581.73	47578.41
581.93	47596.84
582.13	47641.90
582.33	48020.77
582.53	47482.16
582.73	48024.87
582.92	47842.60
583.12	48618.78
583.32	48160.03
583.52	48151.84
583.72	48241.95
583.92	48211.23
584.12	48364.83
584.32	48682.27
584.52	48401.69
584.72	48956.69
584.92	48534.81
585.11	49181.97
585.31	48887.06
585.51	49085.72
585.71	48743.70
585.91	49124.63
586.11	48993.56
586.31	48686.36
586.51	49120.53
586.71	49399.05
586.91	49624.33
587.10	49511.69
587.30	49773.83
587.50	49276.18
587.70	49554.70
587.90	49599.76
588.10	49747.21
588.30	49487.12
588.50	50248.96
588.69	49825.03
588.89	49618.19
589.09	49882.37
589.29	50093.32
589.49	50459.90
589.69	49845.51
589.89	50384.13
590.08	50271.49
590.28	49921.29
590.48	49995.01
590.68	50058.50
590.88	50420.99
591.08	50195.71
591.28	50466.05
591.47	50906.36
591.67	50425.09
591.87	50732.28
592.07	50857.21
592.27	50767.10
592.47	51109.11
592.67	51115.25
592.86	50988.28
593.06	51000.57
593.26	51000.57
593.46	51197.17
593.66	51074.29
593.86	50865.40
594.05	51055.86
594.25	51574.00
594.45	51266.80
594.65	51948.78
594.85	51254.51
595.05	51457.26
595.24	51971.30
595.44	52061.41
595.64	51543.28
595.84	51592.43
596.04	51739.88
596.23	51844.33
596.43	52255.97
596.63	51807.47
596.83	52274.40
597.03	52436.19
597.22	52567.26
597.42	52446.43
597.62	52376.80
597.82	52133.09
598.02	52380.90
598.21	52724.96
598.41	51952.87
598.61	52219.11
598.81	52983.00
599.01	52937.94
599.20	51928.30
599.40	52313.31
599.60	52958.42
599.80	52804.83
600.00	52659.42
600.19	53187.80
600.39	52743.39
600.59	52880.60
600.79	53204.18
600.98	52833.50
601.18	53200.08
601.38	52868.31
601.58	53912.78
601.78	53908.68
601.97	53361.87
602.17	53507.28
602.37	53650.64
602.57	53609.68
602.76	53851.34
602.96	53249.24
603.16	53771.47
603.36	53560.53
603.55	53990.60
603.75	53654.73
603.95	54047.94
604.15	53679.31
604.34	53705.93
604.54	54174.92
604.74	54023.37
604.94	54258.88
605.13	54336.71
605.33	54303.94
605.53	53908.68
605.73	54547.65
605.92	54398.15
606.12	54400.19
606.32	54355.14
606.52	54394.05
606.71	54510.78
606.91	54602.94
607.11	54230.21
607.30	54795.45
607.50	54523.07
607.70	54875.32
607.90	54566.08
608.09	54303.94
608.29	54406.34
608.49	54598.85
608.68	54637.76
608.88	54744.25
609.08	54797.50
609.28	54734.01
609.47	54568.13
609.67	54869.18
609.87	54985.91
610.06	55037.11
610.26	54723.77
610.46	54797.50
610.66	55121.08
610.85	54965.43
611.05	54734.01
611.25	54932.67
611.44	54455.49
611.64	54793.40
611.84	54893.75
612.03	54279.36
612.23	54791.36
612.43	55284.92
612.62	54580.42
612.82	54760.64
613.02	55061.69
613.21	54731.96
613.41	54348.99
613.61	55243.96
613.80	54783.16
614.00	55008.44
614.20	54809.79
614.39	54752.44
614.59	55063.74
614.79	54639.81
614.98	54498.50
615.18	55209.14
615.38	54867.13
615.57	54613.18
615.77	55313.59
615.97	54965.43
616.16	54793.40
616.36	55147.70
616.56	55071.93
616.75	54961.34
616.95	54617.28
617.15	54635.71
617.34	54875.32
617.54	54518.98
617.74	54666.43
617.93	55221.43
618.13	54396.10
618.32	54678.72
618.52	54621.37
618.72	54863.03
618.91	54973.63
619.11	54402.24
619.31	54682.81
619.50	54138.05
619.70	54111.43
619.90	54695.10
620.09	54570.18
620.29	54494.40
620.48	54572.22
620.68	54758.59
620.88	53929.16
621.07	54467.78
621.27	54664.38
621.46	53912.78
621.66	54342.85
621.86	54629.57
622.05	54025.42
622.25	54641.85
622.44	54320.32
622.64	54045.90
622.84	54353.09
623.03	54469.82
623.23	54600.89
623.42	54066.38
623.62	54523.07
623.82	54641.85
624.01	54033.61
624.21	54793.40
624.40	54531.26
624.60	54475.97
624.80	54097.09
624.99	54129.86
625.19	54039.75
625.38	54369.47
625.58	54271.17
625.77	54402.24
625.97	54269.12
626.17	53769.42
626.36	54127.81
626.56	54011.08
626.75	53726.41
626.95	54392.00
627.14	54353.09
627.34	54539.46
627.54	54058.18
627.73	54430.91
627.93	54295.75
628.12	54049.99
628.32	53777.61
628.51	54412.48
628.71	54000.84
628.90	54043.85
629.10	54375.62
629.30	54580.42
629.49	54002.89
629.69	54252.74
629.88	54140.10
630.08	54711.49
630.27	54731.96
630.47	54355.14
630.66	54469.82
630.86	54631.61
631.05	54129.86
631.25	54389.95
631.44	54435.01
631.64	54435.01
631.84	54572.22
632.03	54951.10
632.23	54197.44
632.42	54693.05
632.62	54291.65
632.81	54146.25
633.01	54731.96
633.20	55180.47
633.40	55184.57
633.59	54744.25
633.79	54346.95
633.98	54736.06
634.18	54602.94
634.37	54480.06
634.57	54922.43
634.76	54940.86
634.96	55159.99
635.15	55090.36
635.35	54394.05
635.54	54916.28
635.74	54824.12
635.93	54893.75
636.13	55194.81
636.32	55411.89
636.52	54334.66
636.71	54914.23
636.91	54699.20
637.10	54811.84
637.30	54748.35
637.49	54756.54
637.69	55014.58
637.88	55282.87
638.08	55184.57
638.27	55393.46
638.46	55278.77
638.66	55350.45
638.85	55069.88
639.05	55260.34
639.24	55166.13
639.44	55084.22
639.63	55438.51
639.83	55350.45
640.02	55465.14
640.22	55422.13
640.41	55340.21
640.61	55092.41
640.80	55362.74
640.99	55104.70
641.19	55850.16
641.38	55753.90
641.58	55223.48
641.77	55442.61
641.97	55293.11
642.16	55497.91
642.36	55755.95
642.55	56083.62
642.74	55159.99
642.94	56075.43
643.13	55579.82
643.33	56292.52
643.52	55823.53
643.72	55540.91
643.91	56143.02
644.10	55674.03
644.30	56292.52
644.49	56063.14
644.69	56562.85
644.88	56173.73
645.08	55628.98
645.27	56216.74
645.46	55981.23
645.66	56243.37
645.85	55891.12
646.05	56278.18
646.24	56462.50
646.43	56345.76
646.63	56446.11
646.82	56128.68
647.02	56390.82
647.21	56386.72
647.40	56403.11
647.60	56515.75
647.79	56767.65
647.99	56564.90
648.18	56698.01
648.37	56919.20
648.57	56943.77
648.76	56947.87
648.96	56870.04
649.15	57138.33
649.34	57654.42
649.54	56964.25
649.73	56706.21
649.92	57379.99
650.12	57193.62
650.31	56677.54
650.51	57105.56
650.70	57119.90
650.89	56845.47
651.09	57853.07
651.28	57099.42
651.47	57132.18
651.67	57271.45
651.86	57963.66
652.06	56954.01
652.25	57404.56
652.44	57167.00
652.64	57158.81
652.83	57273.49
653.02	57175.19
653.22	57275.54
653.41	56855.71
653.60	57451.67
653.80	57332.89
653.99	57627.79
654.18	57420.95
654.38	57435.28
654.57	57228.44
654.76	57504.91
654.96	57539.73
655.15	57314.45
655.34	57697.42
655.54	57580.69
655.73	57676.94
655.92	57646.22
656.12	57998.48
656.31	57613.46
656.50	57758.86
656.70	57834.64
656.89	57562.26
657.08	58102.92
657.28	57611.41
657.47	57523.35
657.66	57943.18
657.86	57506.96
658.05	58180.74
658.24	57910.41
658.43	58051.72
658.63	57982.09
658.82	57681.04
659.01	57943.18
659.21	57947.28
659.40	58104.97
659.59	57748.62
659.79	57992.33
659.98	58238.09
660.17	58113.16
660.36	57949.32
660.56	57957.52
660.75	57975.95
660.94	57822.35
661.14	57799.82
661.33	57783.44
661.52	57707.66
661.71	58549.38
661.91	57390.23
662.10	57924.75
662.29	59032.70
662.49	58227.85
662.68	58139.78
662.87	58516.61
663.06	58180.74
663.26	57707.66
663.45	58305.67
663.64	57861.26
663.83	58842.24
664.03	58242.18
664.22	58152.07
664.41	57939.08
664.60	58033.29
664.80	58311.81
664.99	58150.02
665.18	57711.76
665.37	58080.39
665.57	58160.26
665.76	57623.70
665.95	57812.11
666.14	57953.42
666.34	58510.47
666.53	58227.85
666.72	57920.65
666.91	58299.53
667.11	57846.93
667.30	57889.93
667.49	57957.52
667.68	57918.60
667.87	57744.53
668.07	58317.96
668.26	58004.62
668.45	58000.52
668.64	57894.03
668.84	58586.24
669.03	58602.63
669.22	57910.41
669.41	58119.31
669.60	58064.01
669.80	57652.37
669.99	58147.98
670.18	57513.11
670.37	58053.77
670.57	58156.17
670.76	57750.67
670.95	57853.07
671.14	57857.17
671.33	57531.54
671.53	58383.49
671.72	57752.72
671.91	57939.08
672.10	57830.54
672.29	57515.15
672.48	57724.05
672.68	58010.76
672.87	57984.14
673.06	57834.64
673.25	57236.63
673.44	57955.47
673.64	57564.31
673.83	57425.04
674.02	57791.63
674.21	57336.98
674.40	57750.67
674.59	57136.28
674.79	57697.42
674.98	57169.05
675.17	57586.83
675.36	57453.72
675.55	57601.17
675.74	57281.69
675.94	57099.42
676.13	57533.59
676.32	57152.66
676.51	58053.77
676.70	57369.75
676.89	57527.44
677.08	57746.57
677.28	57128.09
677.47	57871.50
677.66	57435.28
677.85	57449.62
678.04	57218.20
678.23	57304.21
678.42	57351.32
678.62	56849.56
678.81	57582.74
679.00	57011.35
679.19	57848.97
679.38	57080.98
679.57	57128.09
679.76	57250.97
679.96	57330.84
680.15	56747.17
680.34	56962.20
680.53	57070.75
680.72	57103.51
680.91	57453.72
681.10	56612.00
681.29	56724.64
681.48	56491.17
681.68	56624.29
681.87	56863.90
682.06	56802.46
682.25	56370.34
682.44	56681.63
682.63	56433.83
682.82	56317.09
683.01	56566.94
683.20	56226.98
683.39	56253.61
683.59	56007.85
683.78	56284.33
683.97	56063.14
684.16	56132.78
684.35	56378.53
684.54	56470.69
684.73	56464.55
684.92	56005.80
685.11	55608.50
685.30	55530.67
685.49	56450.21
685.69	56190.12
685.88	56003.75
686.07	55694.51
686.26	56003.75
686.45	56042.66
686.64	55493.81
686.83	56018.09
687.02	55870.64
687.21	56132.78
687.40	55653.55
687.59	56198.31
687.78	55792.81
687.97	55923.88
688.16	55837.87
688.35	55700.65
688.54	54916.28
688.74	55796.91
688.93	55403.70
689.12	55493.81
689.31	55655.60
689.50	55778.48
689.69	55016.63
689.88	55123.13
690.07	55569.58
690.26	55270.58
690.45	55428.27
690.64	55073.98
690.83	54770.88
691.02	54312.13
691.21	54910.14
691.40	54944.95
691.59	54992.06
691.78	54822.08
691.97	55196.85
692.16	54949.05
692.35	55291.06
692.54	55123.13
692.73	54785.21
692.92	54703.29
693.11	55049.40
693.30	54496.45
693.49	54449.35
693.68	54840.51
693.87	54420.67
694.06	54701.25
694.25	54533.31
694.44	54387.91
694.63	54351.04
694.82	54318.28
695.01	54570.18
695.20	54443.20
695.39	54375.62
695.58	54113.48
695.77	53851.34
695.96	54224.07
696.15	54285.51
696.34	54195.40
696.53	54240.45
696.72	54035.66
696.91	53738.70
697.10	54162.63
697.29	53957.83
697.48	53779.66
697.67	53728.46
697.86	53736.65
698.05	53408.98
698.24	54473.92
698.43	53673.16
698.62	54095.05
698.81	53697.74
699.00	54191.30
699.19	53712.08
699.38	53857.48
699.57	53419.22
699.76	54052.04
699.95	53384.40
700.14	53306.58
700.32	53417.17
700.51	53351.63
700.70	53812.43
700.89	53755.08
701.08	53331.15
701.27	53331.15
701.46	53654.73
701.65	52712.67
701.84	53013.72
702.03	53294.29
702.22	52681.95
702.41	53327.06
702.60	53478.61
702.79	53318.87
702.98	52780.25
703.17	53372.11
703.35	52950.23
703.54	52903.13
703.73	52999.38
703.92	52872.41
704.11	53177.56
704.30	52597.98
704.49	53056.73
704.68	52794.59
704.87	52851.93
705.06	52835.55
705.25	52792.54
705.43	52763.87
705.62	52831.45
705.81	52786.39
706.00	52608.22
706.19	52534.49
706.38	52696.28
706.57	52276.45
706.76	52188.39
706.95	52892.89
707.14	52059.37
707.32	52430.05
707.51	52309.22
707.70	52477.15
707.89	52729.05
708.08	52118.76
708.27	52147.43
708.46	52606.17
708.65	52487.39
708.84	52989.14
709.02	52786.39
709.21	52409.57
709.40	52534.49
709.59	52464.86
709.78	51868.90
709.97	52352.23
710.16	52335.84
710.34	52329.70
710.53	52198.63
710.72	52221.16
710.91	52110.56
711.10	52509.92
711.29	52296.93
711.48	52110.56
711.66	51926.25
711.85	51772.65
712.04	51959.02
712.23	51881.19
712.42	52083.94
712.61	51733.74
712.80	51451.12
712.98	52090.09
713.17	51825.90
713.36	51868.90
713.55	51819.75
713.74	51860.71
713.93	51946.73
714.11	51762.41
714.30	51602.67
714.49	51535.09
714.68	51471.60
714.87	51725.55
715.06	52114.66
715.24	51336.43
715.43	51852.52
715.62	51170.55
715.81	51385.58
716.00	51676.40
716.18	51352.82
716.37	51592.43
716.56	51463.41
716.75	51346.67
716.94	51373.30
717.12	51246.32
717.31	51811.56
717.50	51401.97
717.69	51160.31
717.88	51516.65
718.06	51281.14
718.25	51100.92
718.44	50595.07
718.63	50935.03
718.82	50810.10
719.00	51080.44
719.19	50816.25
719.38	51035.38
719.57	50791.67
719.76	50787.58
719.94	50558.20
720.13	50590.97
720.32	50699.51
720.51	50613.50
720.69	50830.58
720.88	50511.10
721.07	50666.75
721.26	50431.23
721.44	50619.64
721.63	50427.13
721.82	50115.84
722.01	50296.06
722.20	50236.67
722.38	49886.47
722.57	49853.70
722.76	50308.35
722.95	49984.77
723.13	50001.16
723.32	49943.81
723.51	49976.58
723.70	49865.99
723.88	49593.61
724.07	49597.71
724.26	49734.92
724.44	49317.14
724.63	49814.79
724.82	49577.23
725.01	49456.40
725.19	49429.77
725.38	49497.36
725.57	49511.69
725.76	49763.59
725.94	49653.00
726.13	49429.77
726.32	49620.23
726.51	49339.66
726.69	49687.82
726.88	49706.25
727.07	49790.22
727.25	49304.85
727.44	49399.05
727.63	49573.13
727.82	49272.08
728.00	49595.66
728.19	49194.26
728.38	49716.49
728.56	49360.14
728.75	49720.59
728.94	49349.90
729.12	49302.80
729.31	49046.80
729.50	49751.30
729.69	49870.09
729.87	49581.32
730.06	49214.74
730.25	49288.46
730.43	49892.61
730.62	49022.23
730.81	49554.70
730.99	49792.26
731.18	49708.30
731.37	49892.61
731.55	49640.71
731.74	49677.58
731.93	49380.62
732.11	49720.59
732.30	49556.75
732.49	49077.52
732.67	49597.71
732.86	49861.90
733.05	49272.08
733.23	49349.90
733.42	49661.19
733.61	49478.92
733.79	49607.95
733.98	49454.35
734.17	49323.28
734.35	49315.09
734.54	49124.63
734.73	49638.67
734.91	49181.97
735.10	49227.02
735.29	49397.01
735.47	48549.15
735.66	49517.84
735.84	49038.61
736.03	48868.63
736.22	49382.67
736.40	48932.12
736.59	48784.66
736.78	48968.98
736.96	48870.68
737.15	49247.50
737.33	48895.25
737.52	48882.97
737.71	48749.85
737.89	49124.63
738.08	48657.69
738.27	48923.93
738.45	49181.97
738.64	49241.36
738.82	49239.31
739.01	48889.11
739.20	49046.80
739.38	49065.24
739.57	48825.62
739.75	48667.93
739.94	49145.11
740.13	48796.95
740.31	48366.88
740.50	48405.79
740.68	48702.74
740.87	48663.83
741.06	49005.84
741.24	48629.02
741.43	48313.63
741.61	48819.48
741.80	48454.94
741.99	48608.54
742.17	48549.15
742.36	48665.88
742.54	47965.48
742.73	48766.23
742.91	48547.10
743.10	48055.59
743.29	48213.28
743.47	48966.93
743.66	48323.87
743.84	48594.20
744.03	47975.72
744.21	48119.07
744.40	48317.73
744.59	47969.57
744.77	48244.00
744.96	47742.25
745.14	47797.54
745.33	47830.31
745.51	47461.68
745.70	47945.00
745.88	47519.02
746.07	48172.32
746.26	47729.96
746.44	47781.16
746.63	47346.99
746.81	47439.15
747.00	47541.55
747.18	47498.54
747.37	47680.81
747.55	47461.68
747.74	47609.13
747.92	46968.12
748.11	47410.48
748.29	47476.01
748.48	47209.78
748.66	47711.53
748.85	47338.80
749.03	47138.10
749.22	47166.77
749.41	46884.15
749.59	47531.31
749.78	47463.72
749.96	46724.41
750.15	46695.74
750.33	46828.85
750.52	46691.64
750.70	47156.53
750.89	46818.61
751.07	46384.44
751.26	47086.90
751.44	46880.05
751.63	46570.81
751.81	46589.24
752.00	46640.44
752.18	46595.38
752.37	46456.12
752.55	46323.01
752.74	46263.61
752.92	46460.22
753.10	46308.67
753.29	46101.82
753.47	45823.30
753.66	45733.19
753.84	46384.44
754.03	46355.77
754.21	46062.91
754.40	46490.94
754.58	46439.74
754.77	45520.20
754.95	45907.27
755.14	45919.56
755.32	46183.74
755.51	45735.24
755.69	45931.84
755.88	45583.69
756.06	45725.00
756.24	45665.61
756.43	45643.08
756.61	45784.39
756.80	45512.01
756.98	45270.35
757.17	45266.25
757.35	45585.74
757.54	45245.77
757.72	45425.99
757.90	45096.27
758.09	45233.49
758.27	45180.24
758.46	44766.55
758.64	44924.24
758.83	45274.45
759.01	45290.83
759.19	45118.80
759.38	45002.07
759.56	45038.93
759.75	44545.37
759.93	44244.32
760.12	44791.12
760.30	44750.17
760.48	44741.97
760.67	44965.20
760.85	44397.91
761.04	44666.20
761.22	44692.82
761.40	44246.36
761.59	44471.64
761.77	44385.63
761.96	44250.46
762.14	44268.89
762.32	44172.64
762.51	44045.66
762.69	43869.54
762.88	43965.79
763.06	44590.42
763.24	43971.94
763.43	44397.91
763.61	43734.37
763.80	43746.66
763.98	43976.03
764.16	43537.77
764.35	43494.76
764.53	43146.61
764.72	43490.66
764.90	43449.70
765.08	43439.47
765.27	43482.47
765.45	43185.52
765.63	42773.88
765.82	42833.27
766.00	42435.96
766.18	42945.90
766.37	43140.46
766.55	42716.53
766.74	42859.89
766.92	42532.22
767.10	42567.03
767.29	42605.94
767.47	42466.68
767.65	42677.62
767.84	42540.41
768.02	42810.74
768.20	42509.69
768.39	42243.45
768.57	42401.14
768.75	42122.62
768.94	42214.78
769.12	42423.67
769.30	41876.86
769.49	42087.81
769.67	42147.20
769.85	41739.65
770.04	41774.47
770.22	41536.90
770.40	41416.07
770.59	41739.65
770.77	41530.76
770.95	41506.18
771.14	41717.12
771.32	41274.76
771.50	41043.34
771.69	41129.36
771.87	41577.86
772.05	41035.15
772.24	40775.06
772.42	41158.03
772.60	40969.61
772.78	40983.95
772.97	41000.33
773.15	41053.58
773.33	41123.21
773.52	40736.15
773.70	40949.14
773.88	40854.93
774.07	40734.10
774.25	40723.86
774.43	41092.49
774.61	40678.80
774.80	40764.82
774.98	40621.46
775.16	41098.64
775.34	40918.42
775.53	40670.61
775.71	41207.18
775.89	41016.72
776.08	40664.47
776.26	40738.19
776.44	40635.80
776.62	40510.87
776.81	40306.07
776.99	40914.32
777.17	40578.45
777.35	41106.83
777.54	40871.31
777.72	40494.49
777.90	40586.64
778.08	40744.34
778.27	40633.75
778.45	40648.08
778.63	41072.01
778.81	40844.69
779.00	41321.87
779.18	41002.38
779.36	41174.41
779.54	40854.93
779.73	40887.70
779.91	40816.02
780.09	41303.43
780.27	40979.85
780.46	41438.60
780.64	41229.71
780.82	41141.64
781.00	40895.89
781.19	41280.91
781.37	41571.72
781.55	41514.37
781.73	41137.55
781.91	40899.98
782.10	41293.19
782.28	41391.50
782.46	41405.83
782.64	41684.36
782.82	41014.67
783.01	41563.53
783.19	41966.98
783.37	41080.21
783.55	41358.73
783.74	41694.60
783.92	41129.36
784.10	41751.94
784.28	41833.86
784.46	41172.36
784.64	40678.80
784.83	41149.84
785.01	41405.83
785.19	41252.23
785.37	41495.94
785.55	41360.78
785.74	40758.67
785.92	41074.06
786.10	41336.20
786.28	41319.82
786.46	40846.74
786.64	40662.42
786.83	40543.64
787.01	41196.94
787.19	40822.16
787.37	40856.98
787.55	40695.19
787.74	40349.08
787.92	40684.95
788.10	40818.07
788.28	40218.01
788.46	40703.38
788.64	40248.73
788.82	41026.96
789.01	40578.45
789.19	40410.52
789.37	40330.65
789.55	40134.04
789.73	40109.47
789.91	40127.90
790.09	39984.54
790.28	39892.38
790.46	39853.47
790.64	39781.79
790.82	40054.17
791.00	39552.42
791.18	39499.17
791.36	39548.32
791.55	39533.99
791.73	39679.39
791.91	39280.04
792.09	39298.47
792.27	39366.06
792.45	39490.98
792.63	39634.34
792.81	38995.37
793.00	39318.95
793.18	39394.73
793.36	39022.00
793.54	38761.90
793.72	38589.88
793.90	38696.37
794.08	38501.81
794.26	39017.90
794.44	37823.93
794.62	38284.73
794.81	38401.46
794.99	38262.20
795.17	38366.65
795.35	37813.70
795.53	38297.02
795.71	37803.46
795.89	37987.77
796.07	37858.75
796.25	37879.23
796.43	37660.10
796.61	37318.09
796.80	37336.52
796.98	37567.94
797.16	37316.04
797.34	37113.29
797.52	37033.42
797.70	37352.90
797.88	37039.56
798.06	36593.11
798.24	36699.60
798.42	37045.71
798.60	36691.41
798.78	36584.91
798.96	36660.69
799.14	36353.49
799.32	36697.55
799.51	36349.40
799.69	36302.29
799.87	36476.37
800.05	35714.53
800.23	36134.36
800.41	35937.76
800.59	36130.26
800.77	35915.23
800.95	35605.98
801.13	35726.81
801.31	35694.05
801.49	35978.72
801.67	35558.88
801.85	35270.12
802.03	35073.51
802.21	35358.18
802.39	34987.50
802.57	35321.32
802.75	34762.22
802.93	34809.32
803.11	34958.83
803.29	35100.14
803.47	34846.19
803.65	34776.56
803.83	34708.97
804.01	34819.56
804.19	34407.92
804.37	34375.16
804.55	34362.87
804.73	34209.27
804.91	34291.19
805.09	34346.48
805.27	34127.35
805.45	34119.16
805.63	34295.28
805.81	33951.23
805.99	34059.77
806.17	34024.95
806.35	33519.10
806.53	33818.11
806.71	33719.81
806.89	33584.64
807.07	33416.71
807.25	33533.44
807.43	33072.65
807.61	33336.84
807.79	33437.19
807.97	32992.78
808.15	33097.22
808.33	32871.95
808.51	33097.22
808.69	32722.44
808.87	32562.70
809.05	32742.92
809.23	32876.04
809.41	32337.43
809.59	32722.44
809.77	32884.23
809.95	32714.25
810.13	32974.34
810.31	32120.34
810.49	32601.61
810.67	32607.76
810.84	32173.59
811.02	32241.17
811.20	32437.78
811.38	32136.73
811.56	32124.44
811.74	32306.71
811.92	31778.33
812.10	31854.11
812.28	31956.50
812.46	32038.42
812.64	31970.84
812.82	31340.07
813.00	31751.71
813.18	31999.51
813.36	31809.05
813.53	31403.55
813.71	31688.22
813.89	30973.48
814.07	31610.40
814.25	31569.44
814.43	31213.09
814.61	30889.51
814.79	31270.43
814.97	30996.01
815.15	31012.39
815.33	30807.59
815.50	30768.68
815.68	30801.45
815.86	30887.46
816.04	30748.20
816.22	30721.58
816.40	30977.58
816.58	30543.41
816.76	30572.08
816.94	30574.13
817.11	30735.92
817.29	30443.06
817.47	30635.56
817.65	30258.74
817.83	30377.52
818.01	30111.28
818.19	29963.83
818.37	30197.30
818.54	30060.09
818.72	29750.84
818.90	30191.16
819.08	29894.20
819.26	30297.65
819.44	29695.55
819.62	30176.82
819.80	30117.43
819.97	29894.20
820.15	29793.85
820.33	29931.06
820.51	29675.07
820.69	29900.34
820.87	29849.14
821.05	29632.06
821.22	29529.66
821.40	29486.65
821.58	29609.53
821.76	29189.70
821.94	29380.16
822.12	29406.78
822.29	28964.42
822.47	29167.17
822.65	29249.09
822.83	29210.18
823.01	29185.60
823.19	29165.12
823.36	28739.15
823.54	28935.75
823.72	28902.98
823.90	28991.05
824.08	28270.16
824.25	28866.12
824.43	28569.16
824.61	28536.40
824.79	28726.86
824.97	28636.75
825.15	29163.08
825.32	28720.71
825.50	28698.19
825.68	28300.88
825.86	28526.16
826.04	28253.78
826.21	28427.85
826.39	28175.95
826.57	28200.53
826.75	28192.34
826.93	28038.74
827.10	27989.59
827.28	28401.23
827.46	28251.73
827.64	28122.71
827.81	27936.34
827.99	28163.67
828.17	28028.50
828.35	28044.88
828.53	28173.91
828.70	28042.84
828.88	27844.18
829.06	28005.97
829.24	27860.57
829.41	28005.97
829.59	28325.46
829.77	27815.51
829.95	27551.32
830.12	27762.26
830.30	27715.16
830.48	27969.11
830.66	27856.47
830.84	27686.49
831.01	27557.47
831.19	27510.36
831.37	27520.60
831.55	27330.14
831.72	27301.47
831.90	27633.24
832.08	27463.26
832.25	27575.90
832.43	27678.30
832.61	27233.89
832.79	27154.02
832.96	27237.98
833.14	27319.90
833.32	27346.53
833.50	27485.79
833.67	26906.21
833.85	27127.39
834.03	26850.92
834.20	27215.46
834.38	26918.50
834.56	27088.48
834.74	26773.10
834.91	26816.10
835.09	26826.34
835.27	26660.46
835.44	26846.82
835.62	26562.15
835.80	26601.07
835.98	27086.43
836.15	26846.82
836.33	26680.94
836.51	26779.24
836.68	26349.17
836.86	26476.14
837.04	26580.59
837.21	26672.74
837.39	26367.60
837.57	26760.81
837.75	26498.67
837.92	25943.67
838.10	26193.52
838.28	26121.84
838.45	26224.24
838.63	26199.66
838.81	26089.07
838.98	26222.19
839.16	26238.58
839.34	26111.60
839.51	26113.65
839.69	25509.50
839.87	25841.27
840.04	25822.84
840.22	25933.43
840.40	25917.04
840.57	25515.64
840.75	25581.18
840.93	25620.09
841.10	25865.85
841.28	25988.72
841.46	25681.53
841.63	26068.59
841.81	25392.76
841.98	25652.86
842.16	25753.21
842.34	25409.15
842.51	25366.14
842.69	25212.54
842.87	25308.80
843.04	25699.96
843.22	25357.95
843.40	25108.10
843.57	25276.03
843.75	25339.52
843.92	25259.65
844.10	25271.93
844.28	25263.74
844.45	25235.07
844.63	25351.81
844.81	25081.47
844.98	24979.07
845.16	25044.61
845.33	24919.68
845.51	25144.96
845.69	24931.97
845.86	24944.26
846.04	24428.17
846.21	24610.44
846.39	24680.07
846.57	24753.80
846.74	24716.93
846.92	24526.47
847.09	24737.41
847.27	24331.92
847.45	24610.44
847.62	24370.83
847.80	24639.11
847.97	24352.40
848.15	24489.61
848.32	24307.34
848.50	24368.78
848.68	24186.51
848.85	24032.91
849.03	24184.46
849.20	24219.28
849.38	24147.60
849.56	24329.87
849.73	23875.22
849.91	24307.34
850.08	24143.50
850.26	23688.85
850.43	24131.22
850.61	23826.07
850.78	23760.53
850.96	23766.68
851.14	24043.15
851.31	24127.12
851.49	23711.38
851.66	23752.34
851.84	23717.53
852.01	23584.41
852.19	23852.69
852.36	23711.38
852.54	23770.77
852.71	23633.56
852.89	23295.64
853.07	23402.14
853.24	23490.20
853.42	23221.92
853.59	23416.47
853.77	23271.07
853.94	23633.56
854.12	23541.40
854.29	23027.36
854.47	23531.16
854.64	23244.45
854.82	23090.85
854.99	23238.30
855.17	23439.00
855.34	23025.31
855.52	23013.02
855.69	23195.29
855.87	23357.08
856.04	22656.68
856.22	23148.19
856.39	22509.22
856.57	22970.02
856.74	22550.18
856.92	22898.34
857.09	22867.62
857.27	22533.80
857.44	22922.91
857.62	22949.54
857.79	22900.39
857.97	22601.38
858.14	22920.87
858.32	22621.86
858.49	22552.23
858.67	22402.73
858.84	22408.87
859.02	22580.90
859.19	22271.66
859.37	22275.76
859.54	22494.89
859.72	22412.97
859.89	22386.35
860.06	22290.09
860.24	22025.90
860.41	22331.05
860.59	21575.35
860.76	22245.04
860.94	22111.92
861.11	21978.80
861.29	21999.28
861.46	22146.73
861.64	21937.84
861.81	21952.18
861.98	21964.46
862.16	21630.65
862.33	21696.18
862.51	21491.38
862.68	21915.31
862.86	21587.64
863.03	21696.18
863.21	21606.07
863.38	21411.51
863.55	21446.33
863.73	21534.39
863.90	21743.28
864.08	21663.41
864.25	21587.64
864.43	21356.22
864.60	21282.49
864.77	21102.27
864.95	21184.19
865.12	21030.59
865.30	21479.10
865.47	20981.44
865.64	21188.28
865.82	21264.06
865.99	21243.58
866.17	20733.64
866.34	21178.04
866.51	20801.22
866.69	20979.39
866.86	20901.57
867.04	21257.92
867.21	20651.72
867.38	20649.67
867.56	20815.55
867.73	20569.80
867.91	20868.80
868.08	20584.13
868.25	20551.37
868.43	20573.89
868.60	20545.22
868.78	20491.98
868.95	20747.97
869.12	20422.34
869.30	20397.77
869.47	20381.38
869.64	20287.18
869.82	20350.67
869.99	20143.82
870.16	20670.15
870.34	20332.23
870.51	20317.90
870.69	20111.05
870.86	20180.68
871.03	19820.24
871.21	19758.80
871.38	19871.44
871.55	20111.05
871.73	19709.65
871.90	19971.79
872.07	19652.31
872.25	19521.24
872.42	19523.29
872.59	19623.64
872.77	19418.84
872.94	19631.83
873.11	19259.10
873.29	19537.62
873.46	19386.07
873.63	19302.11
873.81	19551.96
873.98	19263.19
874.15	19341.02
874.33	19193.56
874.50	19168.99
874.67	19039.97
874.85	19060.45
875.02	19242.71
875.19	18945.76
875.37	19189.47
875.54	18820.83
875.71	18878.18
875.88	18704.10
876.06	19054.30
876.23	18902.75
876.40	18630.37
876.58	18452.20
876.75	18597.60
876.92	18304.74
877.10	18562.79
877.27	18542.31
877.44	18493.16
877.61	18403.05
877.79	18470.63
877.96	18304.74
878.13	18284.26
878.31	17841.90
878.48	18327.27
878.65	18319.08
878.82	17893.10
879.00	18159.34
879.17	17772.27
879.34	17940.21
879.51	17991.41
879.69	17829.62
879.86	17729.27
880.03	17817.33
880.21	17317.62
880.38	17940.21
880.55	17747.70
880.72	17731.31
880.90	17923.82
881.07	17649.39
881.24	17694.45
881.41	17798.90
881.59	17555.19
881.76	17454.84
881.93	17401.59
882.10	17456.89
882.28	17266.42
882.45	17456.89
882.62	17387.25
882.79	17448.69
882.96	17321.72
883.14	17350.39
883.31	17680.11
883.48	17430.26
883.65	17317.62
883.83	17387.25
884.00	17354.49
884.17	17262.33
884.34	17174.27
884.51	17030.91
884.69	17121.02
884.86	17207.03
885.03	16977.66
885.20	16840.45
885.38	17139.45
885.55	17043.20
885.72	16844.54
885.89	16885.50
886.06	16959.23
886.24	16959.23
886.41	16930.56
886.58	17002.24
886.75	16987.90
886.92	16895.74
887.10	16928.51
887.27	16914.17
887.44	16979.71
887.61	16785.15
887.78	16582.40
887.95	16824.06
888.13	16400.13
888.30	16439.05
888.47	16430.85
888.64	16477.96
888.81	16484.10
888.99	16221.96
889.16	16111.37
889.33	16381.70
889.50	16187.14
889.67	16121.61
889.84	16074.51
890.01	16310.02
890.19	16062.22
890.36	16336.65
890.53	16105.23
890.70	15867.66
890.87	16172.81
891.04	15822.61
891.22	15795.98
891.39	16097.03
891.56	15785.74
891.73	15757.07
891.90	15793.94
892.07	15826.70
892.24	15935.24
892.42	15673.10
892.59	15642.39
892.76	15656.72
892.93	15904.53
893.10	15757.07
893.27	15804.17
893.44	15408.92
893.61	15521.56
893.79	15492.88
893.96	15503.12
894.13	15478.55
894.30	15472.40
894.47	15333.14
894.64	15746.83
894.81	15361.81
894.98	15658.77
895.15	15347.48
895.33	15214.36
895.50	15535.89
895.67	15447.83
895.84	15433.49
896.01	15410.96
896.18	15310.61
896.35	15490.84
896.52	15308.57
896.69	15253.27
896.86	15398.68
897.04	15357.72
897.21	15343.38
897.38	15128.35
897.55	15603.47
897.72	15574.80
897.89	15595.28
898.06	15386.39
898.23	15134.49
898.40	15269.66
898.57	15318.81
898.74	15200.02
898.91	15257.37
899.08	15345.43
899.26	15208.22
899.43	15085.34
899.60	15185.69
899.77	15345.43
899.94	15005.47
900.11	15023.90
900.28	15081.24
900.45	14876.44
900.62	15099.67
900.79	15189.78
900.96	15224.60
901.13	15064.86
901.30	15032.09
901.47	14946.08
901.64	14980.89
901.81	15171.35
901.98	15007.52
902.15	15132.44
902.32	14976.80
902.49	15167.26
902.66	15413.01
902.83	14982.94
903.01	14915.36
903.18	15095.58
903.35	15017.75
903.52	15154.97
903.69	15118.11
903.86	15232.79
904.03	14999.32
904.20	15240.98
904.37	15314.71
904.54	14991.13
904.71	14868.25
904.88	14927.64
905.05	14935.84
905.22	15027.99
905.39	14876.44
905.56	14997.28
905.73	14894.88
905.90	15118.11
906.07	15044.38
906.24	15107.87
906.41	14933.79
906.58	14982.94
906.75	14991.13
906.92	14716.70
907.09	15052.57
907.26	14946.08
907.43	14769.95
907.60	15054.62
907.77	14851.87
907.93	15169.30
908.10	14849.82
908.27	15171.35
908.44	14798.62
908.61	14780.19
908.78	14880.54
908.95	14913.31
909.12	14874.40
909.29	14567.20
909.46	14720.80
909.63	14419.75
909.80	14917.40
909.97	14645.02
910.14	14645.02
910.31	14821.15
910.48	14681.89
910.65	14659.36
910.82	14505.76
910.99	14882.59
911.16	14626.59
911.33	14704.42
911.50	14452.52
911.66	14651.17
911.83	14714.66
912.00	14501.67
912.17	14415.65
912.34	14343.97
912.51	14479.14
912.68	14343.97
912.85	14415.65
913.02	14561.06
913.19	14505.76
913.36	14366.50
913.53	14432.04
913.70	14556.96
913.86	14573.35
914.03	14450.47
914.20	14262.05
914.37	14276.39
914.54	14268.20
914.71	14346.02
914.88	14298.92
915.05	14247.72
915.22	13963.05
915.39	13930.28
915.55	14075.69
915.72	14028.59
915.89	13793.07
916.06	13770.54
916.23	13897.52
916.40	13756.21
916.57	13727.53
916.74	13752.11
916.91	13631.28
917.07	13578.03
917.24	13707.05
917.41	13700.91
917.58	13879.08
917.75	13627.18
917.92	13582.13
918.09	13489.97
918.26	13582.13
918.42	13623.09
918.59	13520.69
918.76	13393.72
918.93	13266.74
919.10	13199.16
919.27	13379.38
919.44	13395.76
919.60	13322.04
919.77	13154.10
919.94	13086.52
920.11	13070.14
920.28	13135.67
920.45	12975.93
920.61	13084.47
920.78	12871.48
920.95	12963.64
921.12	12787.52
921.29	12738.37
921.46	12881.72
921.62	12613.44
921.79	12668.73
921.96	12427.07
922.13	12164.93
922.30	12508.99
922.47	12705.60
922.63	12455.75
922.80	12570.43
922.97	12187.46
923.14	12339.01
923.31	12281.67
923.47	12152.65
923.64	12355.40
923.81	12156.74
923.98	12199.75
924.15	12130.12
924.32	12222.28
924.48	11982.67
924.65	11953.99
924.82	11597.65
924.99	11693.90
925.15	11786.06
925.32	11935.56
925.49	11607.89
925.66	11519.82
925.83	11587.41
925.99	11411.28
926.16	11513.68
926.33	11501.39
926.50	11433.81
926.67	11349.84
926.83	11546.45
927.00	11157.33
927.17	11325.27
927.34	11315.03
927.50	11284.31
927.67	11384.66
927.84	11274.07
928.01	11202.39
928.17	11200.34
928.34	11050.84
928.51	10930.01
928.68	10850.14
928.84	10887.00
929.01	10751.84
929.18	10768.22
929.35	10858.33
929.51	10884.95
929.68	10481.50
929.85	10760.03
930.02	10604.38
930.18	10555.23
930.35	10475.36
930.52	10446.69
930.69	10600.29
930.85	10504.03
931.02	10159.97
931.19	10190.69
931.36	10250.08
931.52	10336.10
931.69	10157.92
931.86	10071.91
932.02	10063.72
932.19	9998.18
932.36	9946.98
932.53	10004.33
932.69	9789.29
932.86	10002.28
933.03	9820.01
933.19	9852.78
933.36	9744.24
933.53	9908.07
933.70	9682.80
933.86	9537.39
934.03	9697.13
934.20	9291.63
934.36	9342.83
934.53	9396.08
934.70	9183.09
934.86	9217.91
935.03	9117.56
935.20	8943.48
935.36	8980.34
935.53	8961.91
935.70	8929.14
935.86	8898.42
936.03	8775.55
936.20	8511.36
936.36	8521.60
936.53	8570.75
936.70	8619.90
936.86	8587.13
937.03	8429.44
937.20	8259.46
937.36	8261.51
937.53	7917.45
937.70	7833.48
937.86	7808.90
938.03	7794.57
938.20	7935.88
938.36	7540.62
938.53	7669.64
938.70	7569.29
938.86	7509.90
939.03	7415.69
939.20	7276.43
939.36	7309.20
939.53	7133.08
939.70	7384.98
939.86	6924.18
940.03	6952.85
940.19	6817.69
940.36	6721.43
940.53	6756.25
940.69	6713.24
940.86	6666.14
941.03	6500.25
941.19	6576.03
941.36	6240.16
941.52	6406.05
941.69	6240.16
941.86	6254.50
942.02	6283.17
942.19	6014.88
942.35	6055.84
942.52	6107.04
942.69	6018.98
942.85	5793.70
943.02	5816.23
943.18	5924.77
943.35	5777.32
943.52	5824.42
943.68	5722.02
943.85	5728.17
944.01	5588.91
944.18	5609.39
944.35	5629.87
944.51	5502.89
944.68	5408.69
944.84	5560.24
945.01	5566.38
945.17	5410.73
945.34	5386.16
945.51	5459.88
945.67	5451.69
945.84	5332.91
946.00	5369.77
946.17	5437.36
946.33	5173.17
946.50	5425.07
946.67	5332.91
946.83	5406.64
947.00	5457.84
947.16	5316.53
947.33	5304.24
947.49	5320.62
947.66	5418.93
947.82	5326.77
947.99	5226.42
948.16	5386.16
948.32	5257.14
948.49	5390.25
948.65	5517.23
948.82	5255.09
948.98	5265.33
949.15	5162.93
949.31	5414.83
949.48	5312.43
949.64	5320.62
949.81	5425.07
949.97	5367.73
950.14	5369.77
950.30	5269.42
950.47	5476.27
950.63	5226.42
950.80	5351.34
950.96	5330.86
951.13	5375.92
951.30	5418.93
951.46	5523.37
951.63	5457.84
951.79	5468.08
951.96	5554.09
952.12	5459.88
952.29	5543.85
952.45	5429.17
952.62	5461.93
952.78	5425.07
952.94	5590.95
953.11	5410.73
953.27	5363.63
953.44	5550.00
953.60	5494.70
953.77	5437.36
953.93	5433.26
954.10	5363.63
954.26	5478.32
954.43	5595.05
954.59	5642.15
954.76	5449.64
954.92	5482.41
955.09	5619.63
955.25	5541.80
955.42	5494.70
955.58	5625.77
955.75	5517.23
955.91	5425.07
956.07	5431.21
956.24	5523.37
956.40	5572.52
956.57	5795.75
956.73	5506.99
956.90	5713.83
957.06	5488.56
957.23	5416.88
957.39	5529.52
957.56	5537.71
957.72	5459.88
957.88	5578.67
958.05	5664.68
958.21	5668.78
958.38	5484.46
958.54	5605.29
958.71	5640.11
958.87	5537.71
959.03	5537.71
959.20	5564.33
959.36	5572.52
959.53	5564.33
959.69	5500.84
959.85	5492.65
960.02	5500.84
960.18	5545.90
960.35	5509.04
960.51	5599.15
960.68	5572.52
960.84	5523.37
961.00	5425.07
961.17	5525.42
961.33	5423.02
961.50	5629.87
961.66	5468.08
961.82	5529.52
961.99	5611.43
962.15	5369.77
962.31	5525.42
962.48	5416.88
962.64	5488.56
962.81	5597.10
962.97	5513.13
963.13	5506.99
963.30	5703.59
963.46	5470.12
963.62	5443.50
963.79	5545.90
963.95	5500.84
964.12	5545.90
964.28	5513.13
964.44	5386.16
964.61	5652.39
964.77	5439.40
964.93	5429.17
965.10	5351.34
965.26	5457.84
965.42	5425.07
965.59	5300.14
965.75	5406.64
965.92	5406.64
966.08	5431.21
966.24	5392.30
966.41	5416.88
966.57	5474.22
966.73	5402.54
966.90	5492.65
967.06	5300.14
967.22	5164.98
967.39	5312.43
967.55	5367.73
967.71	5341.10
967.88	5382.06
968.04	5218.22
968.20	5275.57
968.37	5400.49
968.53	5339.05
968.69	5253.04
968.85	5423.02
969.02	5277.62
969.18	5312.43
969.34	5177.26
969.51	5138.35
969.67	5253.04
969.83	5263.28
970.00	5306.29
970.16	5242.80
970.32	5214.13
970.48	5390.25
970.65	5154.74
970.81	5238.70
970.97	5097.39
971.14	5054.39
971.30	5193.65
971.46	5085.11
971.63	5222.32
971.79	5138.35
971.95	5132.21
972.11	5095.35
972.28	5064.63
972.44	5109.68
972.60	4923.32
972.76	4943.80
972.93	5081.01
973.09	5087.15
973.25	5119.92
973.42	4884.41
973.58	5087.15
973.74	4939.70
973.90	5031.86
974.07	4992.95
974.23	4941.75
974.39	4964.28
974.55	4941.75
974.72	4874.17
974.88	4831.16
975.04	4886.45
975.20	4829.11
975.37	4929.46
975.53	4855.73
975.69	4962.23
975.85	4911.03
976.01	4847.54
976.18	4739.00
976.34	4896.69
976.50	5029.81
976.66	4853.69
976.83	4792.25
976.99	4749.24
977.15	4827.06
977.31	4663.22
977.47	4999.09
977.64	4818.87
977.80	4716.47
977.96	4849.59
978.12	4822.97
978.29	4722.62
978.45	4554.68
978.61	4700.09
978.77	4808.63
978.93	4583.35
979.10	4618.17
979.26	4540.35
979.42	4640.70
979.58	4640.70
979.74	4644.79
979.91	4671.42
980.07	4554.68
980.23	4720.57
980.39	4511.68
980.55	4566.97
980.71	4448.19
980.88	4589.50
981.04	4544.44
981.20	4546.49
981.36	4501.44
981.52	4448.19
981.68	4605.88
981.85	4444.09
982.01	4517.82
982.17	4446.14
982.33	4448.19
982.49	4538.30
982.65	4399.04
982.82	4396.99
982.98	4421.56
983.14	4304.83
983.30	4489.15
983.46	4505.53
983.62	4407.23
983.79	4270.01
983.95	4489.15
984.11	4175.81
984.27	4431.80
984.43	4171.71
984.59	4337.60
984.75	4296.64
984.91	4382.65
985.08	4310.97
985.24	4155.33
985.40	4106.18
985.56	4224.96
985.72	4302.78
985.88	4274.11
986.04	4143.04
986.20	4075.46
986.37	4192.19
986.53	4169.66
986.69	4108.23
986.85	4081.60
987.01	4128.70
987.17	4241.34
987.33	4147.14
987.49	4155.33
987.65	4149.18
987.82	4095.94
987.98	4073.41
988.14	4210.62
988.30	4050.88
988.46	4011.97
988.62	3966.92
988.78	3944.39
988.94	4069.31
989.10	3993.54
989.26	3921.86
989.42	3948.48
989.59	3821.51
989.75	3946.44
989.91	4073.41
990.07	3833.80
990.23	3905.48
990.39	3831.75
990.55	3932.10
990.71	3796.93
990.87	3950.53
991.03	3950.53
991.19	3821.51
991.35	3850.18
991.51	3917.76
991.67	4016.07
991.83	3833.80
992.00	3936.20
992.16	3786.69
992.32	3829.70
992.48	3776.45
992.64	3731.40
992.80	3657.67
992.96	3829.70
993.12	3772.36
993.28	3788.74
993.44	3686.34
993.60	3821.51
993.76	3717.06
993.92	3741.64
994.08	3803.08
994.24	3743.69
994.40	3708.87
994.56	3678.15
994.72	3672.01
994.88	3588.04
995.04	3688.39
995.20	3590.09
995.36	3626.95
995.52	3573.71
995.68	3559.37
995.84	3575.75
996.00	3702.73
996.16	3563.47
996.32	3557.32
996.48	3508.17
996.64	3545.03
996.80	3545.03
996.96	3581.90
997.12	3475.40
997.28	3407.82
997.44	3510.22
997.60	3504.07
997.76	3497.93
997.92	3461.07
998.08	3477.45
998.24	3413.96
998.40	3397.58
998.56	3469.26
998.72	3377.10
998.88	3407.82
999.04	3276.75
999.20	3364.81
999.36	3401.68
999.52	3463.12
999.68	3295.18
999.84	3426.25
1000.00	3239.89
1000.16	3418.06
1000.32	3209.17
1000.48	3442.64
1000.64	3235.79
1000.80	3256.27
1000.95	3198.93
1001.11	3330.00
1001.27	3149.78
1001.43	3323.85
1001.59	3235.79
1001.75	3129.30
1001.91	3362.76
1002.07	3133.39
1002.23	3254.22
1002.39	3256.27
1002.55	3221.45
1002.71	3092.43
1002.87	3200.98
1003.03	3145.68
1003.19	3170.26
1003.34	3301.33
1003.50	3248.08
1003.66	3170.26
1003.82	3121.10
1003.98	3069.91
1004.14	3051.47
1004.30	3135.44
1004.46	3139.54
1004.62	2961.36
1004.78	3074.00
1004.94	3055.57
1005.09	3092.43
1005.25	3065.81
1005.41	3053.52
1005.57	3082.19
1005.73	3028.95
1005.89	2938.84
1006.05	3002.32
1006.21	2996.18
1006.37	3012.56
1006.52	2932.69
1006.68	2891.73
1006.84	2996.18
1007.00	2875.35
1007.16	2973.65
1007.32	2858.96
1007.48	2920.40
1007.64	2904.02
1007.79	2936.79
1007.95	2789.33
1008.11	2994.13
1008.27	2883.54
1008.43	2942.93
1008.59	2875.35
1008.75	2897.88
1008.91	2920.40
1009.06	2893.78
1009.22	2887.64
1009.38	2770.90
1009.54	2832.34
1009.70	2746.33
1009.86	2840.53
1010.01	2985.94
1010.17	2824.15
1010.33	2748.37
1010.49	2924.50
1010.65	2867.16
1010.81	2740.18
1010.96	2873.30
1011.12	2680.79
1011.28	2760.66
1011.44	2768.85
1011.60	2676.70
1011.76	2729.94
1011.91	2736.09
1012.07	2672.60
1012.23	2670.55
1012.39	2568.15
1012.55	2756.57
1012.71	2725.85
1012.86	2707.41
1013.02	2670.55
1013.18	2703.32
1013.34	2625.50
1013.50	2684.89
1013.65	2723.80
1013.81	2602.97
1013.97	2547.67
1014.13	2715.61
1014.29	2588.63
1014.44	2578.39
1014.60	2678.74
1014.76	2584.54
1014.92	2523.10
1015.07	2637.78
1015.23	2543.58
1015.39	2549.72
1015.55	2508.76
1015.71	2674.65
1015.86	2627.54
1016.02	2463.71
1016.18	2480.09
1016.34	2609.11
1016.49	2492.38
1016.65	2602.97
1016.81	2572.25
1016.97	2490.33
1017.12	2617.30
1017.28	2465.75
1017.44	2461.66
1017.60	2516.95
1017.75	2467.80
1017.91	2400.22
1018.07	2514.91
1018.23	2475.99
1018.38	2486.23
1018.54	2416.60
1018.70	2441.18
1018.86	2457.56
1019.01	2389.98
1019.17	2437.08
1019.33	2451.42
1019.49	2369.50
1019.64	2455.51
1019.80	2437.08
1019.96	2496.47
1020.12	2441.18
1020.27	2351.07
1020.43	2398.17
1020.59	2394.08
1020.74	2420.70
1020.90	2428.89
1021.06	2338.78
1021.22	2422.75
1021.37	2334.68
1021.53	2205.66
1021.69	2394.08
1021.84	2226.14
1022.00	2267.10
1022.16	2328.54
1022.31	2297.82
1022.47	2291.68
1022.63	2351.07
1022.79	2150.37
1022.94	2224.09
1023.10	2349.02
1023.26	2277.34
1023.41	2279.39
1023.57	2269.15
1023.73	2353.12
1023.88	2299.87
1024.04	2199.52
1024.20	2250.72
1024.35	2303.96
1024.51	2207.71
1024.67	2252.77
1024.82	2297.82
1024.98	2187.23
1025.14	2273.25
1025.29	2207.71
1025.45	2248.67
1025.61	2201.57
1025.76	2121.70
1025.92	2191.33
1026.08	2224.09
1026.23	2275.29
1026.39	2273.25
1026.55	2222.05
1026.70	2080.74
1026.86	2230.24
1027.02	2232.29
1027.17	2228.19
1027.33	2273.25
1027.48	2164.70
1027.64	2152.42
1027.80	2138.08
1027.95	2140.13
1028.11	2066.40
1028.27	2146.27
1028.42	2230.24
1028.58	2140.13
1028.73	2174.94
1028.89	2084.83
1029.05	2136.03
1029.20	2117.60
>>>>>End Processed Spectral Data<<<<<
