SpectraSuite Data File
++++++++++++++++++++++++++++++++++++
Date: Fri Jun 02 14:44:37 CEST 2017
User: INFO_000
Dark Spectrum Present: No
Reference Spectrum Present: No
Number of Sampled Component Spectra: 1
Spectrometers: USB4H00879
Integration Time (usec): 80000 (USB4H00879)
Spectra Averaged: 1 (USB4H00879)
Boxcar Smoothing: 0 (USB4H00879)
Correct for Electrical Dark: No (USB4H00879)
Strobe/Lamp Enabled: No (USB4H00879)
Correct for Detector Non-linearity: No (USB4H00879)
Correct for Stray Light: No (USB4H00879)
Number of Pixels in Processed Spectrum: 3648
>>>>>Begin Processed Spectral Data<<<<<
345.13	1275.88
345.34	1275.88
345.56	1275.88
345.78	1310.70
345.99	1259.50
346.21	1679.33
346.42	1656.81
346.64	1621.99
346.86	1798.12
347.07	1607.66
347.29	1691.62
347.50	1583.08
347.72	1658.85
347.94	1705.96
348.15	1593.32
348.37	1566.70
348.59	1755.11
348.80	1644.52
349.02	1763.30
349.23	1908.71
349.45	1816.55
349.67	1853.41
349.88	1699.81
350.10	1927.14
350.31	1791.97
350.53	1904.61
350.75	2068.45
350.96	1710.05
351.18	1849.32
351.39	1853.41
351.61	1761.25
351.82	1849.32
352.04	1972.19
352.26	1843.17
352.47	1849.32
352.69	1931.23
352.90	1751.01
353.12	1814.50
353.34	1888.23
353.55	1937.38
353.77	1925.09
353.98	1816.55
354.20	1845.22
354.41	1902.56
354.63	1884.13
354.85	2035.68
355.06	1873.89
355.28	1814.50
355.49	1869.80
355.71	1869.80
355.92	1867.75
356.14	1914.85
356.35	1916.90
356.57	1892.32
356.79	1861.60
357.00	1826.79
357.22	2007.01
357.43	1851.36
357.65	1859.56
357.86	1851.36
358.08	1961.95
358.29	1894.37
358.51	1966.05
358.72	2031.58
358.94	1900.52
359.16	1902.56
359.37	2017.25
359.59	1947.62
359.80	2002.91
360.02	1988.58
360.23	2052.06
360.45	2033.63
360.66	1957.86
360.88	1839.08
361.09	1957.86
361.31	1992.67
361.52	1961.95
361.74	2011.11
361.95	2078.69
362.17	1927.14
362.38	2060.26
362.60	2050.02
362.81	2052.06
363.03	1929.19
363.24	1957.86
363.46	1970.15
363.67	2011.11
363.89	1941.47
364.10	1990.63
364.32	1970.15
364.53	2070.50
364.75	1888.23
364.96	1976.29
365.18	1992.67
365.39	1970.15
365.61	1951.71
365.82	2070.50
366.04	2017.25
366.25	1931.23
366.47	2131.94
366.68	1976.29
366.90	2037.73
367.11	1998.82
367.33	2066.40
367.54	1982.43
367.76	2025.44
367.97	2166.75
368.19	2004.96
368.40	2076.64
368.62	1978.34
368.83	1951.71
369.05	2076.64
369.26	2031.58
369.48	1992.67
369.69	1961.95
369.91	2113.50
370.12	2068.45
370.33	2160.61
370.55	1990.63
370.76	2082.78
370.98	2138.08
371.19	2062.30
371.41	2142.18
371.62	2064.35
371.84	2037.73
372.05	2181.09
372.27	2070.50
372.48	2074.59
372.69	2066.40
372.91	2090.98
373.12	2115.55
373.34	2045.92
373.55	2232.29
373.77	2136.03
373.98	2035.68
374.20	2191.33
374.41	2232.29
374.62	2119.65
374.84	2252.77
375.05	2205.66
375.27	2164.70
375.48	2117.60
375.70	2199.52
375.91	2199.52
376.12	2342.88
376.34	2131.94
376.55	2176.99
376.77	2289.63
376.98	2215.90
377.19	2121.70
377.41	2140.13
377.62	2129.89
377.84	2226.14
378.05	2303.96
378.27	2242.53
378.48	2338.78
378.69	2377.69
378.91	2289.63
379.12	2217.95
379.34	2226.14
379.55	2377.69
379.76	2242.53
379.98	2260.96
380.19	2238.43
380.41	2240.48
380.62	2326.49
380.83	2240.48
381.05	2213.85
381.26	2375.64
381.47	2187.23
381.69	2379.74
381.90	2404.32
382.12	2322.40
382.33	2344.92
382.54	2260.96
382.76	2293.72
382.97	2285.53
383.19	2293.72
383.40	2445.27
383.61	2299.87
383.83	2252.77
384.04	2338.78
384.25	2291.68
384.47	2441.18
384.68	2400.22
384.89	2295.77
385.11	2236.38
385.32	2334.68
385.54	2314.20
385.75	2367.45
385.96	2371.55
386.18	2445.27
386.39	2504.67
386.60	2330.59
386.82	2475.99
387.03	2373.60
387.24	2473.95
387.46	2445.27
387.67	2551.77
387.88	2564.06
388.10	2523.10
388.31	2478.04
388.52	2578.39
388.74	2453.47
388.95	2531.29
389.16	2535.39
389.38	2551.77
389.59	2621.40
389.80	2574.30
390.02	2535.39
390.23	2652.12
390.44	2533.34
390.66	2508.76
390.87	2504.67
391.08	2549.72
391.30	2684.89
391.51	2639.83
391.72	2713.56
391.94	2576.34
392.15	2633.69
392.36	2592.73
392.58	2635.74
392.79	2709.46
393.00	2707.41
393.22	2731.99
393.43	2820.05
393.64	2756.57
393.85	2756.57
394.07	2691.03
394.28	2748.37
394.49	2676.70
394.71	2742.23
394.92	2904.02
395.13	2680.79
395.35	2713.56
395.56	2715.61
395.77	2797.53
395.98	2844.63
396.20	2863.06
396.41	3012.56
396.62	2904.02
396.84	2787.29
397.05	2830.29
397.26	2906.07
397.47	3080.14
397.69	2797.53
397.90	2959.31
398.11	2957.27
398.32	2918.36
398.54	2889.68
398.75	2850.77
398.96	2858.96
399.18	3039.19
399.39	3069.91
399.60	3022.80
399.81	3016.66
400.03	2965.46
400.24	3211.22
400.45	3012.56
400.66	3196.88
400.88	3147.73
401.09	3176.40
401.30	3096.53
401.51	3133.39
401.73	3110.86
401.94	3248.08
402.15	3133.39
402.36	3135.44
402.58	3231.69
402.79	3209.17
403.00	3104.72
403.21	3272.65
403.43	3141.58
403.64	3256.27
403.85	3053.52
404.06	3346.38
404.27	3155.92
404.49	3172.30
404.70	3330.00
404.91	3299.28
405.12	3289.04
405.34	3313.61
405.55	3459.02
405.76	3145.68
405.97	3162.06
406.19	3442.64
406.40	3256.27
406.61	3289.04
406.82	3362.76
407.03	3338.19
407.25	3305.42
407.46	3418.06
407.67	3426.25
407.88	3436.49
408.09	3401.68
408.31	3252.17
408.52	3309.52
408.73	3426.25
408.94	3375.05
409.15	3389.39
409.37	3547.08
409.58	3661.77
409.79	3489.74
410.00	3499.98
410.21	3504.07
410.43	3387.34
410.64	3506.12
410.85	3491.79
411.06	3559.37
411.27	3635.14
411.48	3571.66
411.70	3452.88
411.91	3704.78
412.12	3751.88
412.33	3635.14
412.54	3684.30
412.76	3798.98
412.97	3667.91
413.18	3502.03
413.39	3745.73
413.60	3678.15
413.81	3674.06
414.03	3768.26
414.24	3620.81
414.45	3764.17
414.66	3649.48
414.87	3741.64
415.08	3663.82
415.30	3784.65
415.51	3786.69
415.72	3854.28
415.93	3792.84
416.14	3813.32
416.35	3784.65
416.56	3786.69
416.78	3831.75
416.99	3919.81
417.20	3837.89
417.41	4009.92
417.62	4014.02
417.83	3944.39
418.04	3934.15
418.26	3991.49
418.47	3911.62
418.68	4054.98
418.89	3968.96
419.10	4186.05
419.31	4044.74
419.52	4093.89
419.73	4075.46
419.95	4030.40
420.16	4032.45
420.37	3944.39
420.58	4124.61
420.79	3954.63
421.00	4050.88
421.21	4114.37
421.42	4032.45
421.63	4116.42
421.85	4136.90
422.06	4265.92
422.27	4255.68
422.48	4298.69
422.69	4206.53
422.90	4241.34
423.11	4272.06
423.32	4274.11
423.53	4380.61
423.75	4206.53
423.96	4378.56
424.17	4386.75
424.38	4491.20
424.59	4456.38
424.80	4534.20
425.01	4433.85
425.22	4353.98
425.43	4435.90
425.64	4657.08
425.85	4644.79
426.06	4538.30
426.28	4612.03
426.49	4534.20
426.70	4546.49
426.91	4616.12
427.12	4798.39
427.33	4700.09
427.54	4628.41
427.75	4833.21
427.96	4921.27
428.17	4718.52
428.38	4716.47
428.59	4925.36
428.80	4741.05
429.01	4728.76
429.23	4982.71
429.44	4997.04
429.65	4982.71
429.86	5083.06
430.07	4712.38
430.28	4894.65
430.49	5001.14
430.70	5220.27
430.91	5083.06
431.12	5138.35
431.33	5179.31
431.54	5240.75
431.75	5224.37
431.96	5193.65
432.17	5267.38
432.38	5103.54
432.59	5328.81
432.80	5105.59
433.01	5289.90
433.22	5373.87
433.43	5324.72
433.64	5255.09
433.85	5279.66
434.06	5435.31
434.27	5416.88
434.49	5531.56
434.70	5631.91
434.91	5517.23
435.12	5515.18
435.33	5457.84
435.54	5638.06
435.75	5390.25
435.96	5506.99
436.17	5416.88
436.38	5726.12
436.59	5621.67
436.80	5554.09
437.01	5902.25
437.22	5857.19
437.43	5672.87
437.64	5517.23
437.85	5789.61
438.06	5707.69
438.27	5711.78
438.48	5750.70
438.69	5892.01
438.90	5840.81
439.11	5711.78
439.32	6016.93
439.53	5908.39
439.74	5924.77
439.95	5965.73
440.16	5994.40
440.37	6094.76
440.57	5830.57
440.78	6033.32
440.99	6029.22
441.20	6000.55
441.41	5926.82
441.62	6088.61
441.83	5781.42
442.04	6211.49
442.25	6162.34
442.46	6090.66
442.67	6268.83
442.88	6653.85
443.09	6293.41
443.30	6096.80
443.51	6109.09
443.72	6418.33
443.93	6199.20
444.14	6250.40
444.35	6328.22
444.56	6406.05
444.77	6500.25
444.98	6485.92
445.19	6547.36
445.40	6356.90
445.61	6336.42
445.81	6659.99
446.02	6674.33
446.23	6537.12
446.44	6258.59
446.65	6395.81
446.86	6381.47
447.07	6797.21
447.28	6696.86
447.49	6956.95
447.70	6582.17
447.91	6709.15
448.12	6719.39
448.33	6883.22
448.54	6791.06
448.74	6674.33
448.95	6819.74
449.16	6713.24
449.37	7057.30
449.58	6829.98
449.79	7102.36
450.00	6770.58
450.21	6995.86
450.42	7069.59
450.63	7200.66
450.84	7030.68
451.05	6956.95
451.25	7159.70
451.46	6922.13
451.67	7260.05
451.88	7255.95
452.09	7159.70
452.30	7204.75
452.51	7040.92
452.72	7276.43
452.93	7659.40
453.13	7149.46
453.34	7268.24
453.55	7274.38
453.76	7403.41
453.97	7686.03
454.18	7458.70
454.39	7610.25
454.60	7497.61
454.81	7483.28
455.01	7665.55
455.22	7346.06
455.43	7581.58
455.64	7694.22
455.85	7833.48
456.06	7982.98
456.27	7790.47
456.48	7737.23
456.68	7843.72
456.89	7868.30
457.10	7999.37
457.31	8038.28
457.52	7835.53
457.73	8142.72
457.94	8198.02
458.14	7970.69
458.35	8464.25
458.56	8281.99
458.77	8155.01
458.98	8302.47
459.19	8259.46
459.39	8392.58
459.60	8540.03
459.81	8443.78
460.02	8638.33
460.23	8451.97
460.44	8617.85
460.65	8599.42
460.85	8558.46
461.06	8742.78
461.27	8587.13
461.48	8923.00
461.69	8943.48
461.89	8728.44
462.10	9131.89
462.31	8572.80
462.52	8976.25
462.73	8986.49
462.94	9154.42
463.14	9076.60
463.35	9191.28
463.56	9596.78
463.77	9430.90
463.98	9322.35
464.18	9230.20
464.39	9465.71
464.60	9809.77
464.81	9695.08
465.02	9498.48
465.23	9938.79
465.43	9559.92
465.64	10055.53
465.85	9883.50
466.06	9678.70
466.27	10159.97
466.47	10250.08
466.68	10018.66
466.89	10243.94
467.10	10245.99
467.30	10217.32
467.51	10450.78
467.72	10624.86
467.93	10303.33
468.14	10166.12
468.34	10598.24
468.55	10762.08
468.76	10616.67
468.97	10559.33
469.17	11061.08
469.38	10973.02
469.59	11104.09
469.80	10930.01
470.01	10893.15
470.21	10813.28
470.42	11423.57
470.63	11444.05
470.84	11259.73
471.04	11398.99
471.25	11415.38
471.46	11630.41
471.67	11695.95
471.87	11628.37
472.08	11654.99
472.29	12154.69
472.50	11888.46
472.70	11710.29
472.91	11861.84
473.12	12203.85
473.33	12101.45
473.53	12416.83
473.74	12203.85
473.95	12472.13
474.16	12402.50
474.36	12494.66
474.57	12693.31
474.78	12900.16
474.99	12674.88
475.19	12566.34
475.40	12922.68
475.61	13037.37
475.81	13342.52
476.02	13328.18
476.23	13475.63
476.44	13309.75
476.64	13827.88
476.85	13899.56
477.06	13514.55
477.27	13860.65
477.47	13987.63
477.68	13811.50
477.89	14094.12
478.09	14057.26
478.30	14214.95
478.51	14116.65
478.71	14331.69
478.92	14495.52
479.13	14573.35
479.34	14677.79
479.54	14825.25
479.75	14710.56
479.96	14649.12
480.16	14962.46
480.37	15169.30
480.58	14935.84
480.78	15468.31
480.99	15195.93
481.20	15671.06
481.41	15490.84
481.61	15593.23
481.82	15877.90
482.03	15720.21
482.23	15650.58
482.44	16092.94
482.65	16320.26
482.85	16295.69
483.06	16396.04
483.27	16129.80
483.47	16553.73
483.68	16393.99
483.89	16649.99
484.09	16506.63
484.30	16746.24
484.51	17135.35
484.71	16856.83
484.92	16891.65
485.13	17039.10
485.33	17360.63
485.54	17260.28
485.75	17557.24
485.95	17327.86
486.16	17547.00
486.37	17579.76
486.57	17487.61
486.78	17846.00
486.98	17735.41
487.19	17993.45
487.40	17905.39
487.60	18235.11
487.81	18364.14
488.02	18118.38
488.22	18204.39
488.43	18495.21
488.64	18491.11
488.84	18628.32
489.05	18646.76
489.25	18599.65
489.46	19263.19
489.67	18992.86
489.87	19111.64
490.08	19338.97
490.29	18968.29
490.49	19629.78
490.70	19697.36
490.90	19433.18
491.11	19648.21
491.32	19810.00
491.52	19762.90
491.73	19637.97
491.94	19828.43
492.14	19916.50
492.35	19918.54
492.55	20274.89
492.76	20184.78
492.97	20426.44
493.17	20389.58
493.38	20840.13
493.58	20717.25
493.79	20719.30
494.00	20580.04
494.20	21092.03
494.41	20821.70
494.61	21180.09
494.82	21311.16
495.02	21194.43
495.23	21300.92
495.44	21315.26
495.64	21501.62
495.85	21608.12
496.05	21735.09
496.26	21595.83
496.47	21872.31
496.67	21673.65
496.88	22011.57
497.08	22161.07
497.29	22640.29
497.49	22171.31
497.70	22185.65
497.91	22187.69
498.11	22650.53
498.32	22566.57
498.52	22535.85
498.73	23017.12
498.93	22812.32
499.14	23099.04
499.34	22957.73
499.55	23336.60
499.76	23094.94
499.96	23226.01
500.17	23074.46
500.37	23426.71
500.58	23559.83
500.78	23611.03
500.99	23674.52
501.19	23402.14
501.40	23953.04
501.60	23772.82
501.81	23938.71
502.02	23948.95
502.22	23719.57
502.43	24010.39
502.63	24424.08
502.84	24297.10
503.04	24370.83
503.25	24315.53
503.45	24471.18
503.66	24630.92
503.86	24817.29
504.07	24872.58
504.27	24702.60
504.48	25175.68
504.68	25036.42
504.89	25028.23
505.09	25304.70
505.30	25538.17
505.50	25351.81
505.71	25540.22
505.91	25597.56
506.12	25519.74
506.32	25497.21
506.53	25745.02
506.73	25763.45
506.94	25892.47
507.14	25810.55
507.35	26031.73
507.55	26046.07
507.76	25972.34
507.96	25765.49
508.17	26080.88
508.37	26123.89
508.58	26156.66
508.78	26140.27
508.99	26508.91
509.19	26377.84
509.40	26371.69
509.60	26609.26
509.81	26936.93
510.01	26764.90
510.22	26830.44
510.42	26893.93
510.63	27102.82
510.83	26523.24
511.04	26986.08
511.24	27381.34
511.44	27270.75
511.65	27295.33
511.85	26971.75
512.06	27424.35
512.26	27455.07
512.47	27391.58
512.67	27659.87
512.88	27668.06
513.08	27104.87
513.29	27680.35
513.49	27846.23
513.69	27774.55
513.90	27786.84
514.10	27819.61
514.31	27766.36
514.51	27981.40
514.72	27989.59
514.92	27661.91
515.13	28053.08
515.33	28292.69
515.53	28114.52
515.74	28053.08
515.94	28446.29
516.15	28317.26
516.35	28356.18
516.56	28419.66
516.76	28343.89
516.96	28225.11
517.17	28718.67
517.37	28573.26
517.58	28798.54
517.78	28622.41
517.99	28829.26
518.19	29394.50
518.39	28958.28
518.60	29474.37
518.80	28945.99
519.01	29001.29
519.21	28941.89
519.41	29281.86
519.62	28937.80
519.82	29265.47
520.03	29576.76
520.23	29304.38
520.43	29257.28
520.64	29851.19
520.84	29627.96
521.05	29799.99
521.25	29883.96
521.45	29929.02
521.66	29918.78
521.86	29802.04
522.07	29967.93
522.27	30041.65
522.47	30262.83
522.68	30400.05
522.88	30254.64
523.08	30162.48
523.29	30602.80
523.49	30576.17
523.70	30285.36
523.90	30543.41
524.10	30613.04
524.31	30985.77
524.51	30275.12
524.71	30991.91
524.92	30926.38
525.12	31335.97
525.33	31163.94
525.53	31264.29
525.73	31010.34
525.94	31430.18
526.14	31782.43
526.34	31460.90
526.55	31508.00
526.75	31499.81
526.95	31802.91
527.16	31647.26
527.36	31702.56
527.56	31751.71
527.77	31913.50
527.97	32036.38
528.17	32251.41
528.38	32108.05
528.58	31804.95
528.78	32362.00
528.99	32798.22
529.19	32577.04
529.39	32288.28
529.60	32898.57
529.80	32663.05
530.00	32724.49
530.21	32939.53
530.41	32937.48
530.61	33109.51
530.82	33089.03
531.02	33367.55
531.22	33261.06
531.43	33293.83
531.63	33324.55
531.83	33725.95
532.04	33650.17
532.24	33742.33
532.44	33658.37
532.64	34102.78
532.85	34164.21
533.05	34127.35
533.25	34356.72
533.46	34153.97
533.66	34538.99
533.86	34489.84
534.07	34924.01
534.27	34485.75
534.47	35010.03
534.67	34964.97
534.88	34883.05
535.08	35100.14
535.28	35173.86
535.49	35253.73
535.69	35700.19
535.89	35362.28
536.09	35274.21
536.30	35507.68
536.50	35702.24
536.70	36027.87
536.91	35642.85
537.11	36191.70
537.31	36107.74
537.51	36013.53
537.72	36320.73
537.92	36324.82
538.12	36562.39
538.32	36670.93
538.53	36851.15
538.73	36601.30
538.93	36812.24
539.13	36623.83
539.34	36654.54
539.54	36586.96
539.74	37144.01
539.94	37133.77
540.15	36890.06
540.35	37666.24
540.55	37029.32
540.75	37334.47
540.96	37369.29
541.16	37574.08
541.36	37987.77
541.56	37893.57
541.77	37950.91
541.97	37950.91
542.17	38366.65
542.37	38006.20
542.58	38213.05
542.78	37979.58
542.98	38149.56
543.18	38405.56
543.38	39116.20
543.59	38825.39
543.79	38587.83
543.99	38524.34
544.19	38694.32
544.40	38942.13
544.60	39413.16
544.80	39218.60
545.00	39427.49
545.20	39785.89
545.41	39118.25
545.61	39202.22
545.81	39452.07
546.01	39925.15
546.21	39787.94
546.42	39480.74
546.62	39755.17
546.82	39577.00
547.02	40332.70
547.22	39980.45
547.43	39998.88
547.63	40168.86
547.83	40168.86
548.03	40097.18
548.23	40701.33
548.44	40555.93
548.64	40607.12
548.84	40723.86
549.04	40684.95
549.24	40918.42
549.45	41205.13
549.65	40869.26
549.85	40746.39
550.05	41170.32
550.25	41043.34
550.45	41440.65
550.66	40981.90
550.86	41018.77
551.06	41538.95
551.26	41168.27
551.46	41825.67
551.66	41608.58
551.87	41614.72
552.07	41536.90
552.27	41411.98
552.47	41895.30
552.67	42038.65
552.87	41997.70
553.07	42083.71
553.28	42403.19
553.48	42235.26
553.68	41899.39
553.88	42433.91
554.08	42020.22
554.28	42210.68
554.48	42104.19
554.69	42442.10
554.89	42636.66
555.09	42528.12
555.29	42503.54
555.49	42444.15
555.69	42653.05
555.89	43054.45
556.10	42915.19
556.30	42765.68
556.50	43158.89
556.70	42554.74
556.90	42954.10
557.10	42966.38
557.30	42773.88
557.50	43240.81
557.70	43175.28
557.91	43328.87
558.11	43253.10
558.31	43398.51
558.51	43253.10
558.71	43554.15
558.91	43470.18
559.11	43277.68
559.31	43206.00
559.51	43470.18
559.72	43443.56
559.92	43531.62
560.12	43591.01
560.32	43935.07
560.52	43238.76
560.72	43461.99
560.92	43844.96
561.12	44096.86
561.32	44146.01
561.52	43570.54
561.72	44369.24
561.93	43783.52
562.13	44154.21
562.33	43443.56
562.53	44496.22
562.73	43902.31
562.93	43496.81
563.13	44146.01
563.33	44219.74
563.53	43935.07
563.73	44219.74
563.93	44238.17
564.13	44676.44
564.33	43969.89
564.53	43965.79
564.74	44522.84
564.94	44471.64
565.14	44709.21
565.34	43875.68
565.54	44483.93
565.74	44502.36
565.94	44602.71
566.14	44414.30
566.34	44221.79
566.54	44772.69
566.74	44576.09
566.94	44639.57
567.14	44645.72
567.34	44186.97
567.54	44625.24
567.74	45030.74
567.94	44928.34
568.14	44655.96
568.34	45081.94
568.54	44596.57
568.74	44737.88
568.94	45016.40
569.14	44803.41
569.34	44768.60
569.54	44580.18
569.75	44844.37
569.95	44866.90
570.15	45684.04
570.35	44723.54
570.55	45151.57
570.75	45157.71
570.95	45319.50
571.15	45378.89
571.35	45237.58
571.55	45223.25
571.75	45155.66
571.95	45227.34
572.15	45147.47
572.35	45595.98
572.55	45155.66
572.75	45477.19
572.95	45690.18
573.15	45706.57
573.35	45282.64
573.55	45358.41
573.75	45555.02
573.95	45589.83
574.15	45366.60
574.35	45819.20
574.55	45606.22
574.75	45505.87
574.95	46021.95
575.15	45614.41
575.34	45841.73
575.54	46255.42
575.74	46347.58
575.94	46013.76
576.14	45741.38
576.34	46419.26
576.54	46122.30
576.74	45888.84
576.94	46046.53
577.14	46359.87
577.34	46511.42
577.54	45802.82
577.74	46122.30
577.94	46441.79
578.14	46267.71
578.34	46581.05
578.54	46048.58
578.74	46138.69
578.94	46519.61
579.14	46445.88
579.34	46675.26
579.54	46933.30
579.74	46888.24
579.94	46771.51
580.13	46839.09
580.33	47035.70
580.53	47027.51
580.73	46925.11
580.93	46767.41
581.13	47316.27
581.33	46906.68
581.53	47367.47
581.73	47273.26
581.93	47265.07
582.13	47179.06
582.33	47635.75
582.53	47349.04
582.73	47420.72
582.92	47668.52
583.12	47686.95
583.32	47379.76
583.52	47310.13
583.72	47783.21
583.92	47465.77
584.12	47574.31
584.32	48188.70
584.52	47734.06
584.72	48104.74
584.92	47885.61
585.11	48721.18
585.31	48143.65
585.51	48364.83
585.71	48454.94
585.91	48792.86
586.11	48330.01
586.31	48581.91
586.51	48258.34
586.71	48520.48
586.91	48397.60
587.10	48319.77
587.30	48469.28
587.50	48479.52
587.70	48710.94
587.90	48856.34
588.10	48997.65
588.30	49018.13
588.50	48921.88
588.69	49206.55
588.89	48962.84
589.09	49415.44
589.29	49005.84
589.49	49233.17
589.69	48952.60
589.89	49487.12
590.08	49405.20
590.28	49423.63
590.48	49298.70
590.68	49300.75
590.88	49552.65
591.08	49384.72
591.28	49444.11
591.47	50111.75
591.67	49726.73
591.87	49964.29
592.07	49501.45
592.27	50222.34
592.47	49802.50
592.67	50013.44
592.86	50212.10
593.06	50308.35
593.26	50283.78
593.46	49829.13
593.66	50451.71
593.86	50529.53
594.05	50650.36
594.25	50754.81
594.45	50545.92
594.65	50193.67
594.85	50017.54
595.05	51037.43
595.24	51078.39
595.44	50756.86
595.64	51021.05
595.84	51418.35
596.04	51084.53
596.23	51166.45
596.43	51297.52
596.63	51025.14
596.83	51526.89
597.03	51567.85
597.22	51590.38
597.42	51451.12
597.62	51795.18
597.82	51449.07
598.02	51545.33
598.21	52272.35
598.41	51340.53
598.61	51887.34
598.81	51635.44
599.01	52270.31
599.20	52473.06
599.40	52047.08
599.60	51952.87
599.80	52331.75
600.00	52376.80
600.19	52624.60
600.39	52196.58
600.59	53122.26
600.79	52215.01
600.98	52673.76
601.18	53042.39
601.38	52802.78
601.58	53402.83
601.78	53449.94
601.97	52950.23
602.17	53656.78
602.37	53501.14
602.57	53210.32
602.76	53417.17
602.96	52925.66
603.16	53427.41
603.36	53447.89
603.55	54125.77
603.75	53335.25
603.95	53521.62
604.15	53810.38
604.34	53581.01
604.54	53796.04
604.74	53953.74
604.94	54136.01
605.13	54148.29
605.33	54004.94
605.53	54047.94
605.73	54170.82
605.92	54088.90
606.12	54326.47
606.32	53834.95
606.52	54205.64
606.71	54017.22
606.91	54629.57
607.11	54025.42
607.30	54908.09
607.50	54463.68
607.70	54934.71
607.90	54676.67
608.09	54617.28
608.29	54516.93
608.49	55139.51
608.68	54654.14
608.88	54981.82
609.08	55002.30
609.28	54809.79
609.47	54615.23
609.67	55436.47
609.87	55166.13
610.06	55368.88
610.26	55366.84
610.46	55284.92
610.66	55305.40
610.85	55481.52
611.05	55106.74
611.25	55712.94
611.44	55035.06
611.64	55524.53
611.84	54957.24
612.03	55534.77
612.23	55514.29
612.43	55354.55
612.62	55592.11
612.82	55735.47
613.02	55841.96
613.21	55973.03
613.41	55456.95
613.61	55530.67
613.80	55102.65
614.00	55477.43
614.20	55669.93
614.39	55735.47
614.59	56001.71
614.79	55663.79
614.98	55536.82
615.18	56046.76
615.38	55610.54
615.57	55219.38
615.77	55876.78
615.97	55653.55
616.16	55776.43
616.36	55956.65
616.56	55846.06
616.75	55846.06
616.95	55612.59
617.15	55768.24
617.34	55628.98
617.54	55624.88
617.74	55809.20
617.93	55919.79
618.13	55483.57
618.32	55635.12
618.52	55348.40
618.72	55489.71
618.91	55801.00
619.11	55545.01
619.31	55661.74
619.50	55444.66
619.70	55563.44
619.90	55440.56
620.09	55665.84
620.29	55631.02
620.48	55268.53
620.68	56050.86
620.88	55370.93
621.07	55180.47
621.27	55549.10
621.46	55350.45
621.66	55276.72
621.86	55491.76
622.05	55252.15
622.25	55770.28
622.44	55127.22
622.64	54719.68
622.84	55573.68
623.03	55368.88
623.23	55073.98
623.42	55370.93
623.62	55622.83
623.82	55551.15
624.01	55329.97
624.21	55205.05
624.40	55243.96
624.60	54662.33
624.80	54897.85
624.99	54924.47
625.19	55026.87
625.38	54912.19
625.58	55813.29
625.77	55368.88
625.97	55344.31
626.17	55086.26
626.36	55297.20
626.56	55231.67
626.75	54475.97
626.95	55348.40
627.14	54715.58
627.34	54887.61
627.54	54947.00
627.73	55037.11
627.93	54924.47
628.12	54777.02
628.32	54887.61
628.51	54760.64
628.71	55092.41
628.90	54990.01
629.10	54875.32
629.30	55063.74
629.49	54949.05
629.69	54920.38
629.88	54965.43
630.08	55047.35
630.27	54836.41
630.47	54734.01
630.66	54998.20
630.86	55334.07
631.05	54699.20
631.25	55157.94
631.44	54746.30
631.64	54707.39
631.84	55334.07
632.03	55354.55
632.23	54770.88
632.42	55590.06
632.62	55172.28
632.81	54686.91
633.01	54934.71
633.20	55057.59
633.40	55067.83
633.59	55039.16
633.79	54781.12
633.98	54926.52
634.18	55000.25
634.37	54777.02
634.57	54762.68
634.76	54967.48
634.96	54746.30
635.15	54719.68
635.35	54527.17
635.54	54975.67
635.74	55108.79
635.93	54385.86
636.13	55006.39
636.32	54758.59
636.52	54781.12
636.71	54985.91
636.91	54981.82
637.10	55143.61
637.30	54842.56
637.49	54650.05
637.69	54959.29
637.88	54850.75
638.08	54746.30
638.27	54705.34
638.46	55114.94
638.66	54844.60
638.85	55256.24
639.05	55260.34
639.24	55182.52
639.44	54633.66
639.63	55071.93
639.83	55061.69
640.02	54871.23
640.22	54408.39
640.41	55413.94
640.61	54572.22
640.80	54842.56
640.99	54977.72
641.19	55305.40
641.38	55080.12
641.58	54762.68
641.77	55145.65
641.97	55110.84
642.16	54887.61
642.36	54844.60
642.55	55284.92
642.74	54746.30
642.94	55581.87
643.13	55057.59
643.33	55311.54
643.52	54936.76
643.72	55321.78
643.91	55432.37
644.10	55180.47
644.30	55266.48
644.49	55817.39
644.69	55207.09
644.88	54908.09
645.08	55336.12
645.27	55532.72
645.46	55084.22
645.66	55444.66
645.85	54924.47
646.05	55473.33
646.24	55852.20
646.43	55096.50
646.63	55338.16
646.82	55565.49
647.02	55502.00
647.21	55954.60
647.40	55598.26
647.60	55385.27
647.79	55932.07
647.99	55913.64
648.18	55624.88
648.37	56114.34
648.57	55751.85
648.76	55860.40
648.96	55575.73
649.15	55927.98
649.34	55968.94
649.54	55921.83
649.73	55647.41
649.92	56083.62
650.12	55565.49
650.31	55907.50
650.51	55745.71
650.70	55950.51
650.89	55854.25
651.09	56595.62
651.28	56431.78
651.47	56618.14
651.67	55927.98
651.86	56734.88
652.06	56206.50
652.25	56618.14
652.44	56114.34
652.64	56075.43
652.83	55999.66
653.02	55817.39
653.22	56167.59
653.41	56167.59
653.60	55987.37
653.80	56302.76
653.99	56325.28
654.18	56454.31
654.38	56351.91
654.57	56435.87
654.76	56773.79
654.96	56196.26
655.15	56147.11
655.34	56390.82
655.54	55768.24
655.73	56267.94
655.92	56745.12
656.12	56327.33
656.31	56278.18
656.50	56290.47
656.70	56675.49
656.89	56292.52
657.08	56419.49
657.28	56874.14
657.47	56554.66
657.66	56706.21
657.86	56605.86
658.05	56837.28
658.24	57009.31
658.43	56632.48
658.63	56652.96
658.82	56603.81
659.01	56835.23
659.21	56382.63
659.40	56882.33
659.59	56700.06
659.79	56956.06
659.98	57070.75
660.17	57132.18
660.36	56773.79
660.56	57040.03
660.75	56982.68
660.94	57322.65
661.14	57459.86
661.33	57427.09
661.52	56317.09
661.71	57406.61
661.91	57007.26
662.10	56628.38
662.29	57560.21
662.49	57273.49
662.68	57472.15
662.87	57253.01
663.06	57451.67
663.26	57291.93
663.45	57717.90
663.64	57134.23
663.83	57990.28
664.03	57781.39
664.22	57822.35
664.41	57578.64
664.60	57130.14
664.80	57638.03
664.99	57529.49
665.18	57638.03
665.37	57648.27
665.57	57687.18
665.76	57343.12
665.95	57160.86
666.14	57513.11
666.34	57775.25
666.53	57449.62
666.72	57435.28
666.91	57603.22
667.11	57595.03
667.30	57623.70
667.49	57416.85
667.68	57644.18
667.87	57498.77
668.07	57922.70
668.26	58037.39
668.45	57787.53
668.64	57509.01
668.84	58356.87
669.03	57922.70
669.22	57781.39
669.41	57619.60
669.60	57881.74
669.80	57719.95
669.99	58082.44
670.18	57494.67
670.37	58037.39
670.57	58463.36
670.76	57873.55
670.95	57824.40
671.14	58303.62
671.33	57570.45
671.53	58043.53
671.72	58176.65
671.91	57719.95
672.10	57898.12
672.29	57701.52
672.48	57609.36
672.68	58029.19
672.87	58008.71
673.06	57687.18
673.25	57646.22
673.44	57590.93
673.64	56972.44
673.83	57463.96
674.02	57767.05
674.21	57463.96
674.40	58055.82
674.59	57545.87
674.79	57398.42
674.98	57226.39
675.17	58219.66
675.36	57537.68
675.55	57705.62
675.74	57726.10
675.94	57349.27
676.13	57932.94
676.32	57646.22
676.51	58332.29
676.70	57822.35
676.89	57719.95
677.08	57889.93
677.28	57820.30
677.47	57951.37
677.66	57881.74
677.85	57611.41
678.04	57867.40
678.23	58129.54
678.42	58053.77
678.62	58029.19
678.81	58000.52
679.00	57668.75
679.19	58537.09
679.38	57926.80
679.57	57777.29
679.76	57586.83
679.96	58057.87
680.15	57578.64
680.34	57244.82
680.53	57552.02
680.72	57785.49
680.91	58127.50
681.10	57728.14
681.29	57844.88
681.48	57537.68
681.68	57377.94
681.87	57672.85
682.06	57652.37
682.25	57420.95
682.44	57404.56
682.63	57418.90
682.82	57189.53
683.01	57445.52
683.20	56915.10
683.39	56958.11
683.59	57521.30
683.78	56816.80
683.97	56892.57
684.16	57169.05
684.35	56913.05
684.54	56820.89
684.73	57001.11
684.92	56779.93
685.11	56722.59
685.30	56958.11
685.49	57402.52
685.69	56808.61
685.88	57144.47
686.07	56884.38
686.26	56843.42
686.45	56761.50
686.64	57085.08
686.83	56947.87
687.02	56691.87
687.21	56874.14
687.40	56798.37
687.59	56657.06
687.78	56419.49
687.97	56548.51
688.16	56573.09
688.35	56822.94
688.54	56206.50
688.74	56513.70
688.93	56257.70
689.12	56546.47
689.31	56386.72
689.50	56683.68
689.69	56087.72
689.88	55774.38
690.07	56544.42
690.26	56026.28
690.45	56530.08
690.64	55983.27
690.83	56292.52
691.02	55708.85
691.21	55743.66
691.40	55952.55
691.59	55913.64
691.78	56171.69
691.97	56089.77
692.16	55925.93
692.35	56294.56
692.54	55958.70
692.73	55708.85
692.92	55655.60
693.11	55932.07
693.30	55719.09
693.49	55895.21
693.68	55579.82
693.87	55583.92
694.06	55387.31
694.25	55411.89
694.44	55317.68
694.63	55659.69
694.82	55852.20
695.01	55415.99
695.20	55002.30
695.39	54992.06
695.58	55043.26
695.77	55002.30
695.96	55002.30
696.15	54903.99
696.34	55227.57
696.53	55133.37
696.72	55114.94
696.91	54828.22
697.10	54940.86
697.29	54645.95
697.48	54445.25
697.67	54342.85
697.86	54461.63
698.05	54547.65
698.24	55012.54
698.43	54496.45
698.62	54977.72
698.81	54156.49
699.00	55045.30
699.19	54193.35
699.38	54549.70
699.57	54191.30
699.76	55114.94
699.95	54363.33
700.14	54041.80
700.32	53988.55
700.51	54138.05
700.70	54121.67
700.89	54488.26
701.08	53982.41
701.27	53839.05
701.46	54074.57
701.65	53814.47
701.84	54095.05
702.03	54142.15
702.22	53720.27
702.41	53867.72
702.60	53908.68
702.79	53566.67
702.98	53632.21
703.17	53390.55
703.35	53400.79
703.54	53372.11
703.73	53785.80
703.92	53288.15
704.11	53271.76
704.30	53515.47
704.49	53189.84
704.68	53189.84
704.87	53109.97
705.06	53171.41
705.25	53093.59
705.43	53095.64
705.62	53384.40
705.81	52952.28
706.00	53099.73
706.19	53052.63
706.38	52630.75
706.57	52696.28
706.76	52182.24
706.95	53265.62
707.14	52634.84
707.32	52575.45
707.51	52368.61
707.70	52313.31
707.89	52653.28
708.08	52358.37
708.27	52757.72
708.46	52690.14
708.65	52741.34
708.84	52761.82
709.02	52339.94
709.21	52626.65
709.40	52772.06
709.59	52247.78
709.78	52096.23
709.97	52317.41
710.16	52102.37
710.34	52356.32
710.53	51776.75
710.72	51832.04
710.91	52167.91
711.10	52018.41
711.29	52053.22
711.48	51864.81
711.66	52008.17
711.85	51696.88
712.04	52010.21
712.23	51465.45
712.42	51434.74
712.61	51815.66
712.80	51381.49
712.98	51547.37
713.17	51657.96
713.36	51729.64
713.55	51401.97
713.74	51401.97
713.93	51516.65
714.11	51236.08
714.30	51152.12
714.49	50896.12
714.68	51666.16
714.87	51289.33
715.06	51391.73
715.24	51496.17
715.43	50836.73
715.62	50814.20
715.81	50595.07
716.00	51277.04
716.18	50402.56
716.37	50683.13
716.56	50746.62
716.75	50953.46
716.94	50904.31
717.12	50517.25
717.31	50844.92
717.50	50904.31
717.69	50746.62
717.88	50576.64
718.06	50898.17
718.25	50484.48
718.44	50189.57
718.63	50085.12
718.82	50418.94
719.00	50664.70
719.19	50105.60
719.38	50341.12
719.57	49720.59
719.76	49739.02
719.94	50029.83
720.13	50091.27
720.32	49849.61
720.51	49751.30
720.69	49386.77
720.88	49179.92
721.07	49706.25
721.26	49143.06
721.44	49642.76
721.63	49679.63
721.82	49374.48
722.01	49509.64
722.20	49442.06
722.38	49538.32
722.57	48995.60
722.76	49218.83
722.95	48725.27
723.13	48895.25
723.32	49014.04
723.51	48762.14
723.70	48837.91
723.88	48543.00
724.07	48755.99
724.26	49153.30
724.44	48502.04
724.63	49001.75
724.82	48921.88
725.01	48520.48
725.19	48626.97
725.38	49059.09
725.57	48110.88
725.76	48610.59
725.94	48481.56
726.13	48805.14
726.32	48387.36
726.51	48147.75
726.69	48801.05
726.88	48065.83
727.07	48692.50
727.25	48567.58
727.44	48538.91
727.63	48340.25
727.82	48549.15
728.00	48129.31
728.19	48653.59
728.38	48725.27
728.56	47883.56
728.75	48682.27
728.94	48438.56
729.12	48051.49
729.31	48411.93
729.50	48268.58
729.69	48364.83
729.87	48442.65
730.06	48135.46
730.25	48319.77
730.43	48649.50
730.62	48362.78
730.81	48536.86
730.99	48600.35
731.18	48260.38
731.37	48569.63
731.55	48411.93
731.74	48635.16
731.93	48520.48
732.11	48452.89
732.30	48473.37
732.49	48280.86
732.67	48598.30
732.86	48127.27
733.05	48366.88
733.23	48014.63
733.42	48143.65
733.61	48436.51
733.79	48268.58
733.98	48770.33
734.17	48620.83
734.35	48633.11
734.54	48125.22
734.73	48661.79
734.91	48481.56
735.10	48479.52
735.29	48459.04
735.47	48125.22
735.66	48231.71
735.84	48356.64
736.03	47770.92
736.22	48487.71
736.40	47994.15
736.59	48360.73
736.78	48127.27
736.96	47973.67
737.15	47912.23
737.33	48108.83
737.52	48459.04
737.71	48123.17
737.89	48153.89
738.08	47918.37
738.27	48207.14
738.45	48608.54
738.64	48289.06
738.82	47934.76
739.01	48383.26
739.20	48102.69
739.38	47314.22
739.57	48465.18
739.75	47676.71
739.94	47854.89
740.13	47930.66
740.31	47482.16
740.50	47945.00
740.68	47797.54
740.87	47781.16
741.06	47897.89
741.24	48170.27
741.43	47742.25
741.61	47818.02
741.80	47641.90
741.99	47326.51
742.17	47662.38
742.36	47830.31
742.54	47615.27
742.73	47584.55
742.91	48276.77
743.10	47437.10
743.29	47658.28
743.47	47848.74
743.66	47748.39
743.84	47949.09
744.03	47848.74
744.21	47183.15
744.40	47727.91
744.59	47500.59
744.77	47285.55
744.96	47426.86
745.14	47760.68
745.33	47506.73
745.51	47256.88
745.70	47293.74
745.88	46898.48
746.07	46912.82
746.26	46914.87
746.44	46875.96
746.63	47422.76
746.81	47385.90
747.00	47037.75
747.18	47533.35
747.37	47236.40
747.55	47498.54
747.74	47437.10
747.92	46837.05
748.11	47232.30
748.29	47121.71
748.48	47193.39
748.66	46742.84
748.85	47066.42
749.03	46867.76
749.22	46986.55
749.41	47009.07
749.59	46914.87
749.78	46789.94
749.96	46130.50
750.15	46861.62
750.33	46863.67
750.52	46554.43
750.70	46816.57
750.89	47117.62
751.07	46394.68
751.26	46708.02
751.44	46679.35
751.63	46888.24
751.81	46484.79
752.00	46239.04
752.18	46511.42
752.37	46290.24
752.55	46327.10
752.74	46200.13
752.92	46488.89
753.10	46316.86
753.29	46222.65
753.47	46417.21
753.66	45882.69
753.84	46396.73
754.03	46503.23
754.21	46087.49
754.40	46392.64
754.58	46456.12
754.77	46054.72
754.95	45843.78
755.14	46140.74
755.32	46095.68
755.51	45831.49
755.69	45849.92
755.88	45710.66
756.06	45993.28
756.24	45739.33
756.43	45122.90
756.61	45618.50
756.80	45565.26
756.98	45501.77
757.17	45505.87
757.35	45307.21
757.54	45770.05
757.72	45421.90
757.90	45487.43
758.09	45497.67
758.27	45299.02
758.46	45006.16
758.64	45126.99
758.83	45270.35
759.01	45792.58
759.19	45294.92
759.38	44985.68
759.56	45503.82
759.75	45102.42
759.93	45325.64
760.12	44856.66
760.30	44563.80
760.48	44934.48
760.67	44934.48
760.85	45110.61
761.04	44864.85
761.22	45008.21
761.40	45368.65
761.59	44852.56
761.77	44623.19
761.96	44852.56
762.14	44713.30
762.32	44580.18
762.51	44029.28
762.69	44238.17
762.88	44918.10
763.06	44522.84
763.24	44934.48
763.43	44752.21
763.61	44170.59
763.80	44223.84
763.98	44342.62
764.16	44193.12
764.35	44057.95
764.53	43488.62
764.72	43914.59
764.90	44289.37
765.08	44236.12
765.27	43830.63
765.45	43851.11
765.63	43314.54
765.82	43681.13
766.00	43541.86
766.18	43459.94
766.37	43756.90
766.55	43412.84
766.74	43570.54
766.92	43210.09
767.10	43367.79
767.29	43011.44
767.47	42718.58
767.65	43431.27
767.84	42876.27
768.02	43349.35
768.20	42870.13
768.39	43398.51
768.57	43029.87
768.75	42890.61
768.94	42601.85
769.12	42825.07
769.30	42980.72
769.49	42909.04
769.67	42675.57
769.85	42208.64
770.04	42986.86
770.22	42390.91
770.40	42347.90
770.59	42134.91
770.77	42327.42
770.95	42091.90
771.14	42329.47
771.32	42093.95
771.50	41915.78
771.69	42001.79
771.87	42339.71
772.05	41944.45
772.24	41878.91
772.42	42020.22
772.60	41905.54
772.78	41729.41
772.97	41469.32
773.15	41895.30
773.33	41627.01
773.52	41561.48
773.70	41612.68
773.88	42003.84
774.07	41426.31
774.25	41928.06
774.43	41770.37
774.61	41899.39
774.80	41907.58
774.98	41692.55
775.16	41973.12
775.34	41600.39
775.53	41778.56
775.71	41944.45
775.89	42130.81
776.08	41805.19
776.26	41592.20
776.44	41772.42
776.62	41418.12
776.81	41442.70
776.99	41895.30
777.17	41805.19
777.35	41792.90
777.54	41833.86
777.72	41469.32
777.90	41461.13
778.08	41530.76
778.27	41764.23
778.45	41733.51
778.63	41952.64
778.81	41123.21
779.00	42122.62
779.18	41899.39
779.36	42136.96
779.54	41876.86
779.73	41960.83
779.91	42098.05
780.09	41991.55
780.27	42481.02
780.46	41653.64
780.64	41940.35
780.82	41721.22
781.00	41657.73
781.19	42114.43
781.37	42100.09
781.55	42059.13
781.73	42358.14
781.91	42120.57
782.10	41997.70
782.28	42360.19
782.46	42478.97
782.64	42343.80
782.82	41979.26
783.01	42509.69
783.19	42040.70
783.37	42120.57
783.55	41584.01
783.74	42202.49
783.92	42167.68
784.10	42532.22
784.28	42020.22
784.46	41682.31
784.64	41950.59
784.83	41823.62
785.01	41866.63
785.19	42218.88
785.37	42356.09
785.55	41842.05
785.74	41706.88
785.92	41768.32
786.10	41831.81
786.28	41973.12
786.46	41670.02
786.64	41436.55
786.83	41424.26
787.01	41749.89
787.19	41647.49
787.37	42048.89
787.55	41307.53
787.74	41454.98
787.92	41457.03
788.10	41323.91
788.28	41545.09
788.46	40912.27
788.64	41041.29
788.82	41405.83
789.01	41094.54
789.19	41170.32
789.37	40707.47
789.55	41174.41
789.73	40504.73
789.91	40564.12
790.09	40463.77
790.28	40500.63
790.46	40469.91
790.64	40578.45
790.82	40666.52
791.00	40635.80
791.18	39927.20
791.36	40031.65
791.55	40232.35
791.73	40013.21
791.91	39529.89
792.09	39892.38
792.27	39927.20
792.45	40119.71
792.63	39919.01
792.81	39224.75
793.00	39822.75
793.18	39407.01
793.36	39638.44
793.54	39304.62
793.72	38938.03
793.90	39402.92
794.08	38856.11
794.26	39083.44
794.44	38565.30
794.62	38702.51
794.81	38749.62
794.99	38368.69
795.17	38770.10
795.35	38360.50
795.53	38493.62
795.71	38755.76
795.89	38149.56
796.07	38063.55
796.25	38143.42
796.43	37819.84
796.61	37936.57
796.80	37621.19
796.98	37481.92
797.16	37459.40
797.34	37516.74
797.52	37092.81
797.70	37987.77
797.88	37131.72
798.06	37012.94
798.24	37219.78
798.42	37361.09
798.60	36718.03
798.78	37027.28
798.96	37125.58
799.14	36918.73
799.32	37041.61
799.51	36515.28
799.69	36593.11
799.87	36380.12
800.05	36152.79
800.23	35919.32
800.41	36316.63
800.59	35931.61
800.77	35882.46
800.95	35646.94
801.13	35538.40
801.31	35382.76
801.49	35964.38
801.67	35380.71
801.85	35548.64
802.03	35251.69
802.21	35306.98
802.39	35040.75
802.57	35042.79
802.75	35184.10
802.93	34835.95
803.11	34760.17
803.29	34848.24
803.47	34395.64
803.65	34641.39
803.83	34567.66
804.01	34549.23
804.19	34272.76
804.37	33879.55
804.55	34256.37
804.73	34260.47
804.91	34172.41
805.09	34293.24
805.27	33902.07
805.45	33840.64
805.63	34010.62
805.81	33728.00
805.99	33848.83
806.17	33842.68
806.35	33793.53
806.53	33211.91
806.71	33404.42
806.89	33617.41
807.07	33744.38
807.25	33117.70
807.43	33361.41
807.61	33562.11
807.79	32865.80
807.97	32949.77
808.15	32802.32
808.33	32673.29
808.51	32722.44
808.69	33023.50
808.87	32480.78
809.05	32339.47
809.23	32042.52
809.41	32484.88
809.59	32618.00
809.77	32384.53
809.95	32462.35
810.13	32323.09
810.31	32130.58
810.49	31888.92
810.67	32022.04
810.84	31776.28
811.02	31757.85
811.20	31669.79
811.38	31917.59
811.56	31557.15
811.74	31624.73
811.92	31454.75
812.10	31743.52
812.28	31720.99
812.46	31487.52
812.64	31634.97
812.82	31043.11
813.00	31362.59
813.18	31268.39
813.36	31407.65
813.53	31063.59
813.71	31151.65
813.89	30555.69
814.07	30991.91
814.25	30778.92
814.43	30750.25
814.61	30621.23
814.79	30582.32
814.97	30682.67
815.15	30682.67
815.33	30203.44
815.50	30307.89
815.68	30486.06
815.86	30516.78
816.04	30420.53
816.22	30385.71
816.40	30248.50
816.58	30201.40
816.76	29861.43
816.94	30266.93
817.11	30254.64
817.29	29976.12
817.47	29994.55
817.65	29648.44
817.83	29808.19
818.01	29578.81
818.19	29865.53
818.37	29744.70
818.54	29537.85
818.72	29357.63
818.90	29591.10
819.08	29378.11
819.26	29353.54
819.44	29437.50
819.62	29488.70
819.80	29154.88
819.97	29263.43
820.15	29261.38
820.33	29326.91
820.51	29101.64
820.69	28722.76
820.87	29060.68
821.05	29156.93
821.22	29007.43
821.40	29306.43
821.58	28827.21
821.76	28864.07
821.94	28491.34
822.12	28685.90
822.29	28954.18
822.47	28513.87
822.65	28743.24
822.83	28767.82
823.01	28540.49
823.19	28421.71
823.36	28468.81
823.54	28393.04
823.72	28223.06
823.90	28251.73
824.08	27891.29
824.25	28767.82
824.43	27983.44
824.61	27670.11
824.79	27825.75
824.97	27915.86
825.15	28251.73
825.32	28243.54
825.50	27620.95
825.68	27956.82
825.86	27846.23
826.04	28114.52
826.21	27829.85
826.39	27760.22
826.57	27719.26
826.75	27659.87
826.93	27381.34
827.10	27477.60
827.28	27493.98
827.46	27520.60
827.64	27668.06
827.81	27635.29
827.99	27774.55
828.17	27440.73
828.35	27188.83
828.53	27416.16
828.70	27592.28
828.88	27287.14
829.06	27528.80
829.24	27500.12
829.41	27274.85
829.59	27414.11
829.77	27092.58
829.95	27358.81
830.12	27039.33
830.30	27068.00
830.48	27481.69
830.66	27117.15
830.84	27117.15
831.01	26840.68
831.19	26648.17
831.37	26906.21
831.55	26859.11
831.72	26826.34
831.90	26418.80
832.08	26625.64
832.25	26918.50
832.43	26629.74
832.61	26605.16
832.79	26664.55
832.96	26629.74
833.14	26754.66
833.32	26738.28
833.50	26455.66
833.67	26381.93
833.85	26637.93
834.03	26312.30
834.20	26336.88
834.38	26498.67
834.56	26410.60
834.74	26226.29
834.91	26531.44
835.09	26189.42
835.27	25785.97
835.44	26111.60
835.62	25583.23
835.80	26246.77
835.98	26148.46
836.15	26099.31
836.33	25951.86
836.51	26332.78
836.68	26054.26
836.86	25630.33
837.04	25896.56
837.21	26099.31
837.39	26154.61
837.57	25841.27
837.75	25902.71
837.92	25792.12
838.10	25304.70
838.28	25495.16
838.45	25798.26
838.63	25278.08
838.81	25286.27
838.98	25478.78
839.16	25628.28
839.34	25407.10
839.51	25288.32
839.69	25046.66
839.87	25140.86
840.04	25532.03
840.22	25398.91
840.40	25523.83
840.57	24981.12
840.75	25460.35
840.93	24958.60
841.10	25441.92
841.28	25267.84
841.46	25153.15
841.63	25009.79
841.81	25323.13
841.98	25179.78
842.16	25386.62
842.34	25136.77
842.51	25005.70
842.69	25319.04
842.87	25005.70
843.04	25228.93
843.22	24790.66
843.40	25165.44
843.57	25058.95
843.75	24936.07
843.92	24972.93
844.10	25005.70
844.28	24649.35
844.45	24686.22
844.63	24721.03
844.81	24606.34
844.98	24727.17
845.16	24639.11
845.33	24411.79
845.51	24510.09
845.69	24385.16
845.86	24319.63
846.04	24299.15
846.21	24415.88
846.39	24448.65
846.57	24147.60
846.74	24206.99
846.92	24501.90
847.09	24256.14
847.27	24145.55
847.45	24120.98
847.62	24211.09
847.80	24227.47
847.97	23985.81
848.15	24125.07
848.32	23963.28
848.50	24094.35
848.68	23809.68
848.85	24055.44
849.03	23611.03
849.20	23961.23
849.38	23760.53
849.56	24006.29
849.73	23781.01
849.91	23852.69
850.08	24028.82
850.26	23613.08
850.43	24043.15
850.61	23944.85
850.78	23639.70
850.96	23553.69
851.14	23494.30
851.31	23658.14
851.49	23580.31
851.66	23824.02
851.84	23672.47
852.01	23684.76
852.19	23402.14
852.36	23367.32
852.54	23348.89
852.71	23348.89
852.89	23316.12
853.07	23023.26
853.24	23367.32
853.42	23391.90
853.59	23105.18
853.77	23598.74
853.94	23281.31
854.12	23355.04
854.29	22886.05
854.47	23162.53
854.64	23019.17
854.82	22943.39
854.99	23545.50
855.17	22845.09
855.34	23058.08
855.52	23340.70
855.69	23226.01
855.87	22711.97
856.04	22816.42
856.22	23002.78
856.39	22673.06
856.57	22804.13
856.74	22656.68
856.92	22623.91
857.09	22769.32
857.27	22806.18
857.44	22836.90
857.62	22656.68
857.79	22441.64
857.97	22552.23
858.14	22847.14
858.32	22638.25
858.49	22281.90
858.67	22275.76
858.84	22707.88
859.02	22472.36
859.19	22455.98
859.37	22234.80
859.54	22367.91
859.72	22519.46
859.89	22046.38
860.06	22419.11
860.24	22146.73
860.41	22300.33
860.59	22073.01
860.76	22124.21
860.94	21933.75
861.11	22199.98
861.29	21874.35
861.46	22142.64
861.64	22077.10
861.81	21814.96
861.98	22208.17
862.16	21806.77
862.33	21884.59
862.51	21649.08
862.68	21790.39
862.86	21702.32
863.03	21972.66
863.21	21532.34
863.38	21849.78
863.55	21501.62
863.73	21866.16
863.90	21595.83
864.08	21505.72
864.25	21518.01
864.43	21505.72
864.60	21341.88
864.77	21272.25
864.95	21317.31
865.12	21280.44
865.30	21311.16
865.47	21296.83
865.64	21507.77
865.82	21364.41
865.99	21487.29
866.17	21249.72
866.34	21388.99
866.51	20889.28
866.69	21096.13
866.86	21139.13
867.04	20866.75
867.21	21194.43
867.38	20868.80
867.56	20582.09
867.73	20790.98
867.91	20621.00
868.08	20934.34
868.25	20709.06
868.43	20559.56
868.60	20723.40
868.78	20754.12
868.95	20801.22
869.12	20707.01
869.30	20768.45
869.47	20512.46
869.64	20381.38
869.82	20633.29
869.99	20262.60
870.16	20735.68
870.34	20029.13
870.51	20491.98
870.69	20143.82
870.86	20149.96
871.03	20397.77
871.21	20270.79
871.38	20098.77
871.55	20051.66
871.73	20045.52
871.90	20053.71
872.07	19875.54
872.25	19662.55
872.42	19965.65
872.59	19986.13
872.77	19934.93
872.94	19590.87
873.11	19629.78
873.29	19879.63
873.46	19597.01
873.63	19523.29
873.81	19599.06
873.98	19242.71
874.15	19615.44
874.33	19226.33
874.50	19255.00
874.67	19496.66
874.85	19623.64
875.02	19345.11
875.19	19234.52
875.37	19214.04
875.54	18978.53
875.71	19222.23
875.88	19019.49
876.06	19130.08
876.23	19330.78
876.40	18910.94
876.58	18781.92
876.75	18855.65
876.92	18814.69
877.10	18990.81
877.27	18720.48
877.44	18712.29
877.61	18476.77
877.79	18693.86
877.96	18517.73
878.13	18661.09
878.31	18482.92
878.48	18374.38
878.65	18271.98
878.82	18308.84
879.00	18663.14
879.17	18450.15
879.34	18556.64
879.51	18104.04
879.69	18022.12
879.86	18165.48
880.03	18362.09
880.21	18026.22
880.38	18235.11
880.55	18161.39
880.72	18077.42
880.90	17936.11
881.07	17897.20
881.24	17876.72
881.41	18052.84
881.59	17956.59
881.76	17796.85
881.93	17774.32
882.10	17710.83
882.28	17637.11
882.45	17829.62
882.62	17528.56
882.79	17929.97
882.96	17483.51
883.14	17573.62
883.31	17819.38
883.48	17506.04
883.65	17721.07
883.83	17692.40
884.00	17377.01
884.17	17286.90
884.34	17420.02
884.51	17426.17
884.69	17303.29
884.86	17280.76
885.03	17415.93
885.20	17211.13
885.38	17585.91
885.55	17166.07
885.72	17532.66
885.89	17078.01
886.06	17338.10
886.24	17245.94
886.41	17125.11
886.58	17495.80
886.75	17366.78
886.92	16686.85
887.10	16996.09
887.27	16848.64
887.44	16926.46
887.61	17323.77
887.78	16934.65
887.95	17045.24
888.13	16783.10
888.30	16688.90
888.47	16695.04
888.64	16942.85
888.81	16819.97
888.99	16686.85
889.16	16525.06
889.33	16416.52
889.50	16305.93
889.67	16543.49
889.84	16320.26
890.01	16654.08
890.19	16402.18
890.36	16455.43
890.53	16291.59
890.70	16242.44
890.87	16174.86
891.04	16307.98
891.22	16295.69
891.39	15908.62
891.56	16060.17
891.73	16334.60
891.90	15871.76
892.07	15732.50
892.24	16033.55
892.42	16035.60
892.59	15789.84
892.76	15836.94
892.93	15787.79
893.10	15957.77
893.27	15890.19
893.44	15879.95
893.61	15988.49
893.79	15783.70
893.96	15654.67
894.13	15830.80
894.30	15914.77
894.47	15742.74
894.64	15740.69
894.81	15693.58
894.98	15662.86
895.15	15740.69
895.33	15644.43
895.50	15838.99
895.67	15673.10
895.84	15681.30
896.01	15798.03
896.18	15626.00
896.35	15910.67
896.52	15656.72
896.69	15621.91
896.86	15691.54
897.04	15619.86
897.21	15400.72
897.38	15404.82
897.55	15509.27
897.72	15863.57
897.89	15394.58
898.06	15580.95
898.23	15464.21
898.40	15605.52
898.57	15525.65
898.74	15603.47
898.91	15531.80
899.08	15458.07
899.26	15449.88
899.43	15406.87
899.60	15404.82
899.77	15238.94
899.94	15650.58
900.11	15449.88
900.28	15265.56
900.45	15339.29
900.62	15302.42
900.79	15439.64
900.96	15539.99
901.13	15456.02
901.30	15359.77
901.47	15290.13
901.64	15410.96
901.81	15400.72
901.98	15263.51
902.15	15361.81
902.32	15275.80
902.49	15322.90
902.66	15281.94
902.83	15353.62
903.01	15146.78
903.18	15208.22
903.35	15193.88
903.52	15181.59
903.69	15283.99
903.86	15458.07
904.03	15474.45
904.20	15294.23
904.37	15488.79
904.54	15187.74
904.71	15582.99
904.88	15222.55
905.05	15175.45
905.22	15044.38
905.39	15286.04
905.56	15099.67
905.73	15273.75
905.90	15615.76
906.07	15066.91
906.24	15103.77
906.41	15154.97
906.58	15353.62
906.75	15404.82
906.92	14976.80
907.09	15042.33
907.26	15220.50
907.43	14874.40
907.60	15134.49
907.77	15263.51
907.93	15279.89
908.10	15152.92
908.27	15296.28
908.44	15052.57
908.61	15089.43
908.78	15107.87
908.95	14966.56
909.12	14929.69
909.29	14931.74
909.46	15027.99
909.63	15079.19
909.80	14941.98
909.97	14923.55
910.14	14954.27
910.31	15015.71
910.48	14976.80
910.65	14798.62
910.82	14722.85
910.99	14858.01
911.16	14694.18
911.33	14685.98
911.50	14530.34
911.66	14604.07
911.83	14788.38
912.00	14612.26
912.17	14501.67
912.34	14516.00
912.51	14651.17
912.68	14632.74
912.85	14620.45
913.02	14780.19
913.19	14589.73
913.36	14626.59
913.53	14657.31
913.70	14298.92
913.86	14477.09
914.03	14339.88
914.20	14573.35
914.37	14403.36
914.54	14104.36
914.71	14389.03
914.88	14227.24
915.05	14225.19
915.22	14122.79
915.39	14159.66
915.55	14227.24
915.72	13940.52
915.89	14124.84
916.06	13963.05
916.23	13862.70
916.40	13848.36
916.57	13768.49
916.74	13901.61
916.91	13831.98
917.07	13428.53
917.24	13678.38
917.41	13770.54
917.58	13940.52
917.75	13649.71
917.92	13653.81
918.09	13686.58
918.26	13758.25
918.42	13549.36
918.59	13549.36
918.76	13328.18
918.93	13262.65
919.10	13330.23
919.27	13096.76
919.44	13340.47
919.60	13408.05
919.77	13170.49
919.94	13166.39
920.11	13141.82
920.28	13061.94
920.45	12990.27
920.61	12762.94
920.78	13010.75
920.95	12916.54
921.12	12740.41
921.29	12560.19
921.46	12648.26
921.62	12705.60
921.79	12779.32
921.96	12666.69
922.13	12504.90
922.30	12549.95
922.47	12582.72
922.63	12404.55
922.80	12535.62
922.97	12527.42
923.14	12160.84
923.31	12330.82
923.47	12279.62
923.64	12537.66
923.81	12150.60
923.98	12420.93
924.15	12021.58
924.32	12056.39
924.48	12046.15
924.65	12023.62
924.82	11902.79
924.99	11640.65
925.15	11585.36
925.32	12046.15
925.49	11626.32
925.66	11646.80
925.83	11779.92
925.99	11532.11
926.16	11601.74
926.33	11521.87
926.50	11464.53
926.67	11442.00
926.83	11474.77
927.00	11544.40
927.17	11454.29
927.34	11052.89
927.50	11233.11
927.67	11343.70
927.84	11317.08
928.01	11366.23
928.17	10884.95
928.34	10979.16
928.51	10895.19
928.68	10825.56
928.84	10780.51
929.01	10733.40
929.18	10413.92
929.35	10641.25
929.51	10530.66
929.68	10489.70
929.85	10510.18
930.02	10442.59
930.18	10352.48
930.35	10485.60
930.52	10237.80
930.69	10280.80
930.85	10241.89
931.02	10192.74
931.19	10303.33
931.36	10258.28
931.52	10088.29
931.69	10258.28
931.86	9893.74
932.02	9813.87
932.19	9922.41
932.36	9969.51
932.53	9852.78
932.69	9752.43
932.86	9922.41
933.03	9662.32
933.19	9627.50
933.36	9643.88
933.53	9613.17
933.70	9604.97
933.86	9297.78
934.03	9572.21
934.20	9488.24
934.36	9389.94
934.53	9219.96
934.70	9185.14
934.86	9342.83
935.03	8929.14
935.20	9037.69
935.36	8974.20
935.53	8783.74
935.70	8673.15
935.86	8771.45
936.03	8589.18
936.20	8589.18
936.36	8312.71
936.53	8556.41
936.70	8605.56
936.86	8527.74
937.03	8476.54
937.20	8142.72
937.36	8171.40
937.53	7806.86
937.70	7939.97
937.86	7870.34
938.03	7909.26
938.20	7804.81
938.36	7546.76
938.53	7686.03
938.70	7393.17
938.86	7466.89
939.03	7286.67
939.20	7118.74
939.36	7317.39
939.53	7112.60
939.70	6999.96
939.86	6975.38
940.03	6946.71
940.19	6774.68
940.36	6645.66
940.53	6719.39
940.69	6653.85
940.86	6492.06
941.03	6483.87
941.19	6322.08
941.36	6356.90
941.52	6393.76
941.69	6031.27
941.86	6152.10
942.02	6094.76
942.19	6217.63
942.35	6092.71
942.52	5869.48
942.69	5965.73
942.85	5828.52
943.02	5930.92
943.18	5928.87
943.35	5808.04
943.52	5836.71
943.68	5683.11
943.85	5660.59
944.01	5627.82
944.18	5550.00
944.35	5517.23
944.51	5445.55
944.68	5431.21
944.84	5603.24
945.01	5341.10
945.17	5468.08
945.34	5412.78
945.51	5382.06
945.67	5451.69
945.84	5337.01
946.00	5318.57
946.17	5363.63
946.33	5302.19
946.50	5330.86
946.67	5330.86
946.83	5238.70
947.00	5312.43
947.16	5210.03
947.33	5240.75
947.49	5279.66
947.66	5236.66
947.82	5244.85
947.99	5205.94
948.16	5363.63
948.32	5271.47
948.49	5220.27
948.65	5253.04
948.82	5205.94
948.98	5142.45
949.15	5162.93
949.31	5437.36
949.48	5210.03
949.64	5210.03
949.81	5140.40
949.97	5248.94
950.14	5298.10
950.30	5095.35
950.47	5234.61
950.63	5287.86
950.80	5197.74
950.96	5349.29
951.13	5269.42
951.30	5279.66
951.46	5273.52
951.63	5169.07
951.79	5357.49
951.96	5384.11
952.12	5398.45
952.29	5367.73
952.45	5300.14
952.62	5431.21
952.78	5400.49
952.94	5248.94
953.11	5492.65
953.27	5294.00
953.44	5523.37
953.60	5320.62
953.77	5486.51
953.93	5388.21
954.10	5470.12
954.26	5355.44
954.43	5328.81
954.59	5486.51
954.76	5550.00
954.92	5271.47
955.09	5414.83
955.25	5474.22
955.42	5359.53
955.58	5580.71
955.75	5386.16
955.91	5457.84
956.07	5363.63
956.24	5429.17
956.40	5558.19
956.57	5425.07
956.73	5380.01
956.90	5402.54
957.06	5418.93
957.23	5521.32
957.39	5412.78
957.56	5384.11
957.72	5384.11
957.88	5496.75
958.05	5525.42
958.21	5545.90
958.38	5529.52
958.54	5476.27
958.71	5486.51
958.87	5406.64
959.03	5478.32
959.20	5529.52
959.36	5345.20
959.53	5484.46
959.69	5326.77
959.85	5468.08
960.02	5457.84
960.18	5455.79
960.35	5521.32
960.51	5531.56
960.68	5361.58
960.84	5523.37
961.00	5380.01
961.17	5500.84
961.33	5474.22
961.50	5525.42
961.66	5521.32
961.82	5347.25
961.99	5509.04
962.15	5412.78
962.31	5365.68
962.48	5429.17
962.64	5582.76
962.81	5257.14
962.97	5439.40
963.13	5427.12
963.30	5427.12
963.46	5382.06
963.62	5363.63
963.79	5435.31
963.95	5337.01
964.12	5472.17
964.28	5423.02
964.44	5334.96
964.61	5332.91
964.77	5443.50
964.93	5461.93
965.10	5429.17
965.26	5302.19
965.42	5279.66
965.59	5439.40
965.75	5298.10
965.92	5271.47
966.08	5447.60
966.24	5248.94
966.41	5263.28
966.57	5298.10
966.73	5296.05
966.90	5318.57
967.06	5259.18
967.22	5218.22
967.39	5367.73
967.55	5287.86
967.71	5214.13
967.88	5226.42
968.04	5246.90
968.20	5238.70
968.37	5105.59
968.53	5205.94
968.69	5267.38
968.85	5226.42
969.02	5320.62
969.18	5236.66
969.34	5097.39
969.51	5218.22
969.67	5248.94
969.83	5013.43
970.00	5255.09
970.16	5029.81
970.32	5138.35
970.48	5261.23
970.65	5216.18
970.81	4915.12
970.97	4951.99
971.14	5021.62
971.30	5070.77
971.46	5005.24
971.63	5035.96
971.79	5083.06
971.95	4982.71
972.11	5013.43
972.28	4964.28
972.44	5019.57
972.60	4837.30
972.76	5154.74
972.93	4890.55
973.09	5138.35
973.25	5097.39
973.42	4908.98
973.58	5033.91
973.74	4878.26
973.90	4943.80
974.07	4980.66
974.23	4829.11
974.39	4792.25
974.55	4968.37
974.72	4810.68
974.88	4736.95
975.04	4927.41
975.20	4853.69
975.37	4984.76
975.53	4779.96
975.69	4947.89
975.85	4739.00
976.01	4779.96
976.18	4831.16
976.34	4759.48
976.50	4943.80
976.66	5013.43
976.83	4722.62
976.99	4771.77
977.15	4865.97
977.31	4714.42
977.47	4743.10
977.64	4614.07
977.80	4691.90
977.96	4528.06
978.12	4757.43
978.29	4583.35
978.45	4505.53
978.61	4685.75
978.77	4573.11
978.93	4542.39
979.10	4693.94
979.26	4757.43
979.42	4671.42
979.58	4587.45
979.74	4566.97
979.91	4544.44
980.07	4507.58
980.23	4501.44
980.39	4417.47
980.55	4587.45
980.71	4607.93
980.88	4542.39
981.04	4511.68
981.20	4497.34
981.36	4337.60
981.52	4485.05
981.68	4450.24
981.85	4521.92
982.01	4460.48
982.17	4351.93
982.33	4349.89
982.49	4493.24
982.65	4247.49
982.82	4321.21
982.98	4456.38
983.14	4310.97
983.30	4411.32
983.46	4323.26
983.62	4464.57
983.79	4364.22
983.95	4286.40
984.11	4079.55
984.27	4286.40
984.43	4224.96
984.59	4208.58
984.75	4263.87
984.91	4198.34
985.08	4292.54
985.24	4100.03
985.40	4108.23
985.56	4253.63
985.72	4212.67
985.88	4140.99
986.04	4145.09
986.20	4042.69
986.37	4198.34
986.53	4063.17
986.69	4073.41
986.85	4212.67
987.01	4067.27
987.17	4143.04
987.33	4018.11
987.49	4003.78
987.65	4118.47
987.82	4057.03
987.98	3981.25
988.14	3925.96
988.30	4081.60
988.46	4038.59
988.62	4054.98
988.78	3954.63
988.94	3960.77
989.10	3928.00
989.26	3948.48
989.42	3921.86
989.59	3891.14
989.75	3786.69
989.91	3907.52
990.07	3874.76
990.23	3729.35
990.39	3903.43
990.55	3934.15
990.71	3772.36
990.87	3899.33
991.03	3825.61
991.19	3825.61
991.35	3766.21
991.51	3782.60
991.67	3930.05
991.83	3925.96
992.00	3721.16
992.16	3901.38
992.32	3856.33
992.48	3866.56
992.64	3608.52
992.80	3788.74
992.96	3827.65
993.12	3794.89
993.28	3790.79
993.44	3794.89
993.60	3770.31
993.76	3667.91
993.92	3692.49
994.08	3741.64
994.24	3747.78
994.40	3633.10
994.56	3647.43
994.72	3557.32
994.88	3727.30
995.04	3678.15
995.20	3518.41
995.36	3452.88
995.52	3635.14
995.68	3590.09
995.84	3563.47
996.00	3698.63
996.16	3585.99
996.32	3471.31
996.48	3538.89
996.64	3577.80
996.80	3542.99
996.96	3499.98
997.12	3352.52
997.28	3393.48
997.44	3391.44
997.60	3440.59
997.76	3497.93
997.92	3579.85
998.08	3504.07
998.24	3350.48
998.40	3338.19
998.56	3475.40
998.72	3229.65
998.88	3307.47
999.04	3418.06
999.20	3424.20
999.36	3295.18
999.52	3461.07
999.68	3276.75
999.84	3526.60
1000.00	3313.61
1000.16	3387.34
1000.32	3319.76
1000.48	3268.56
1000.64	3241.93
1000.80	3241.93
1000.95	3243.98
1001.11	3266.51
1001.27	3194.83
1001.43	3286.99
1001.59	3184.59
1001.75	3229.65
1001.91	3205.07
1002.07	3164.11
1002.23	3108.82
1002.39	3192.78
1002.55	3227.60
1002.71	3141.58
1002.87	3092.43
1003.03	3047.38
1003.19	3106.77
1003.34	3211.22
1003.50	3053.52
1003.66	3182.54
1003.82	3235.79
1003.98	3094.48
1004.14	3102.67
1004.30	3051.47
1004.46	3043.28
1004.62	3117.01
1004.78	3047.38
1004.94	3082.19
1005.09	3039.19
1005.25	3074.00
1005.41	3026.90
1005.57	3002.32
1005.73	3022.80
1005.89	2959.31
1006.05	2951.12
1006.21	2969.55
1006.37	2850.77
1006.52	2840.53
1006.68	2998.23
1006.84	3006.42
1007.00	2938.84
1007.16	2969.55
1007.32	2920.40
1007.48	2811.86
1007.64	2910.16
1007.79	2926.55
1007.95	2830.29
1008.11	2977.75
1008.27	2959.31
1008.43	2908.12
1008.59	2846.68
1008.75	2985.94
1008.91	2863.06
1009.06	2797.53
1009.22	2953.17
1009.38	2887.64
1009.54	2844.63
1009.70	2840.53
1009.86	2844.63
1010.01	2887.64
1010.17	2621.40
1010.33	2836.44
1010.49	2850.77
1010.65	2926.55
1010.81	2783.19
1010.96	2858.96
1011.12	2703.32
1011.28	2750.42
1011.44	2809.81
1011.60	2715.61
1011.76	2799.57
1011.91	2691.03
1012.07	2602.97
1012.23	2576.34
1012.39	2756.57
1012.55	2738.13
1012.71	2678.74
1012.86	2660.31
1013.02	2678.74
1013.18	2682.84
1013.34	2566.10
1013.50	2662.36
1013.65	2734.04
1013.81	2590.68
1013.97	2609.11
1014.13	2670.55
1014.29	2652.12
1014.44	2703.32
1014.60	2615.26
1014.76	2668.50
1014.92	2605.02
1015.07	2631.64
1015.23	2654.17
1015.39	2578.39
1015.55	2592.73
1015.71	2574.30
1015.86	2506.71
1016.02	2525.15
1016.18	2402.27
1016.34	2527.19
1016.49	2539.48
1016.65	2639.83
1016.81	2449.37
1016.97	2578.39
1017.12	2535.39
1017.28	2523.10
1017.44	2424.80
1017.60	2424.80
1017.75	2486.23
1017.91	2523.10
1018.07	2490.33
1018.23	2443.23
1018.38	2475.99
1018.54	2516.95
1018.70	2445.27
1018.86	2414.56
1019.01	2414.56
1019.17	2371.55
1019.33	2549.72
1019.49	2410.46
1019.64	2467.80
1019.80	2451.42
1019.96	2492.38
1020.12	2373.60
1020.27	2332.64
1020.43	2377.69
1020.59	2478.04
1020.74	2394.08
1020.90	2365.40
1021.06	2389.98
1021.22	2406.36
1021.37	2400.22
1021.53	2301.92
1021.69	2320.35
1021.84	2273.25
1022.00	2342.88
1022.16	2371.55
1022.31	2330.59
1022.47	2299.87
1022.63	2312.16
1022.79	2301.92
1022.94	2293.72
1023.10	2396.12
1023.26	2338.78
1023.41	2281.44
1023.57	2293.72
1023.73	2357.21
1023.88	2265.05
1024.04	2234.33
1024.20	2224.09
1024.35	2326.49
1024.51	2256.86
1024.67	2205.66
1024.82	2320.35
1024.98	2142.18
1025.14	2269.15
1025.29	2230.24
1025.45	2297.82
1025.61	2267.10
1025.76	2215.90
1025.92	2172.89
1026.08	2209.76
1026.23	2226.14
1026.39	2275.29
1026.55	2224.09
1026.70	2174.94
1026.86	2152.42
1027.02	2303.96
1027.17	2142.18
1027.33	2164.70
1027.48	2213.85
1027.64	2199.52
1027.80	2156.51
1027.95	2150.37
1028.11	2070.50
1028.27	2148.32
1028.42	2191.33
1028.58	2125.79
1028.73	2084.83
1028.89	2054.11
1029.05	2162.66
1029.20	2181.09
>>>>>End Processed Spectral Data<<<<<
