SpectraSuite Data File
++++++++++++++++++++++++++++++++++++
Date: Fri Jun 02 14:44:36 CEST 2017
User: INFO_000
Dark Spectrum Present: No
Reference Spectrum Present: No
Number of Sampled Component Spectra: 1
Spectrometers: USB4H00879
Integration Time (usec): 80000 (USB4H00879)
Spectra Averaged: 1 (USB4H00879)
Boxcar Smoothing: 0 (USB4H00879)
Correct for Electrical Dark: No (USB4H00879)
Strobe/Lamp Enabled: No (USB4H00879)
Correct for Detector Non-linearity: No (USB4H00879)
Correct for Stray Light: No (USB4H00879)
Number of Pixels in Processed Spectrum: 3648
>>>>>Begin Processed Spectral Data<<<<<
345.13	1253.36
345.34	1253.36
345.56	1253.36
345.78	1302.51
345.99	1298.41
346.21	1708.01
346.42	1697.77
346.64	1607.66
346.86	1775.59
347.07	1611.75
347.29	1681.38
347.50	1589.22
347.72	1646.57
347.94	1748.97
348.15	1568.74
348.37	1554.41
348.59	1734.63
348.80	1648.61
349.02	1812.45
349.23	1869.80
349.45	1927.14
349.67	1781.73
349.88	1843.17
350.10	1910.75
350.31	1839.08
350.53	1808.36
350.75	1939.43
350.96	1697.77
351.18	1851.36
351.39	1820.64
351.61	1812.45
351.82	1884.13
352.04	1933.28
352.26	1802.21
352.47	1875.94
352.69	1888.23
352.90	1748.97
353.12	1830.88
353.34	1892.32
353.55	1949.67
353.77	1904.61
353.98	1882.08
354.20	1839.08
354.41	1920.99
354.63	1908.71
354.85	2050.02
355.06	1916.90
355.28	1773.54
355.49	1863.65
355.71	1859.56
355.92	1890.28
356.14	1884.13
356.35	1912.80
356.57	1783.78
356.79	1980.39
357.00	1796.07
357.22	1900.52
357.43	1869.80
357.65	1976.29
357.86	1841.12
358.08	1935.33
358.29	1972.19
358.51	1970.15
358.72	1957.86
358.94	1906.66
359.16	1984.48
359.37	1935.33
359.59	1998.82
359.80	1961.95
360.02	1908.71
360.23	1941.47
360.45	1920.99
360.66	1906.66
360.88	1837.03
361.09	1931.23
361.31	1912.80
361.52	1996.77
361.74	1945.57
361.95	2119.65
362.17	1961.95
362.38	2035.68
362.60	2058.21
362.81	2013.15
363.03	2027.49
363.24	2031.58
363.46	2084.83
363.67	2043.87
363.89	2050.02
364.10	1964.00
364.32	1886.18
364.53	2109.41
364.75	1906.66
364.96	2076.64
365.18	1923.04
365.39	1968.10
365.61	1828.84
365.82	2033.63
366.04	1978.34
366.25	1923.04
366.47	2033.63
366.68	2017.25
366.90	1941.47
367.11	2111.46
367.33	2136.03
367.54	2109.41
367.76	2021.35
367.97	2086.88
368.19	2041.82
368.40	2109.41
368.62	1929.19
368.83	2056.16
369.05	2039.78
369.26	1964.00
369.48	1986.53
369.69	1988.58
369.91	2084.83
370.12	2074.59
370.33	2068.45
370.55	2007.01
370.76	2058.21
370.98	2129.89
371.19	2033.63
371.41	2015.20
371.62	2111.46
371.84	2004.96
372.05	2174.94
372.27	2054.11
372.48	2009.06
372.69	2156.51
372.91	2213.85
373.12	2211.81
373.34	2097.12
373.55	2107.36
373.77	2154.46
373.98	2105.31
374.20	2224.09
374.41	2273.25
374.62	2076.64
374.84	2170.85
375.05	2254.81
375.27	2115.55
375.48	2117.60
375.70	2158.56
375.91	2260.96
376.12	2295.77
376.34	2138.08
376.55	2146.27
376.77	2297.82
376.98	2189.28
377.19	2074.59
377.41	2115.55
377.62	2199.52
377.84	2160.61
378.05	2371.55
378.27	2236.38
378.48	2303.96
378.69	2379.74
378.91	2289.63
379.12	2275.29
379.34	2230.24
379.55	2316.25
379.76	2299.87
379.98	2199.52
380.19	2254.81
380.41	2265.05
380.62	2338.78
380.83	2240.48
381.05	2181.09
381.26	2383.84
381.47	2230.24
381.69	2310.11
381.90	2369.50
382.12	2207.71
382.33	2242.53
382.54	2293.72
382.76	2371.55
382.97	2320.35
383.19	2318.30
383.40	2369.50
383.61	2318.30
383.83	2207.71
384.04	2353.12
384.25	2332.64
384.47	2484.19
384.68	2338.78
384.89	2203.61
385.11	2420.70
385.32	2371.55
385.54	2252.77
385.75	2443.23
385.96	2469.85
386.18	2402.27
386.39	2353.12
386.60	2338.78
386.82	2422.75
387.03	2445.27
387.24	2547.67
387.46	2519.00
387.67	2478.04
387.88	2559.96
388.10	2455.51
388.31	2582.49
388.52	2551.77
388.74	2645.98
388.95	2570.20
389.16	2572.25
389.38	2539.48
389.59	2564.06
389.80	2605.02
390.02	2584.54
390.23	2654.17
390.44	2574.30
390.66	2600.92
390.87	2480.09
391.08	2641.88
391.30	2781.14
391.51	2559.96
391.72	2695.13
391.94	2748.37
392.15	2584.54
392.36	2652.12
392.58	2598.87
392.79	2662.36
393.00	2764.76
393.22	2758.61
393.43	2738.13
393.64	2813.91
393.85	2883.54
394.07	2670.55
394.28	2688.98
394.49	2691.03
394.71	2695.13
394.92	2873.30
395.13	2656.22
395.35	2813.91
395.56	2742.23
395.77	2832.34
395.98	2854.87
396.20	2861.01
396.41	2836.44
396.62	2899.92
396.84	2865.11
397.05	2832.34
397.26	2897.88
397.47	3002.32
397.69	2789.33
397.90	3041.23
398.11	2957.27
398.32	2961.36
398.54	2813.91
398.75	2932.69
398.96	2906.07
399.18	3041.23
399.39	3010.51
399.60	3065.81
399.81	2938.84
400.03	2965.46
400.24	3289.04
400.45	2871.25
400.66	3137.49
400.88	2959.31
401.09	3225.55
401.30	3041.23
401.51	3080.14
401.73	3074.00
401.94	3078.10
402.15	3180.50
402.36	3135.44
402.58	3088.34
402.79	3213.26
403.00	3131.34
403.21	3125.20
403.43	3243.98
403.64	3248.08
403.85	3170.26
404.06	3164.11
404.27	3141.58
404.49	3252.17
404.70	3157.97
404.91	3194.83
405.12	3256.27
405.34	3248.08
405.55	3477.45
405.76	3213.26
405.97	3313.61
406.19	3366.86
406.40	3241.93
406.61	3362.76
406.82	3420.11
407.03	3260.37
407.25	3276.75
407.46	3373.00
407.67	3362.76
407.88	3440.59
408.09	3354.57
408.31	3364.81
408.52	3354.57
408.73	3432.40
408.94	3368.91
409.15	3444.68
409.37	3561.42
409.58	3459.02
409.79	3596.23
410.00	3631.05
410.21	3459.02
410.43	3485.64
410.64	3497.93
410.85	3678.15
411.06	3559.37
411.27	3663.82
411.48	3569.61
411.70	3592.14
411.91	3612.62
412.12	3743.69
412.33	3723.21
412.54	3624.90
412.76	3717.06
412.97	3696.58
413.18	3641.29
413.39	3643.34
413.60	3721.16
413.81	3731.40
414.03	3567.56
414.24	3608.52
414.45	3835.85
414.66	3639.24
414.87	3768.26
415.08	3567.56
415.30	3831.75
415.51	3749.83
415.72	3758.02
415.93	3721.16
416.14	3889.09
416.35	3956.68
416.56	3850.18
416.78	3979.20
416.99	3784.65
417.20	3893.19
417.41	3944.39
417.62	3909.57
417.83	3991.49
418.04	3938.24
418.26	3946.44
418.47	3790.79
418.68	4052.93
418.89	3960.77
419.10	4071.36
419.31	4210.62
419.52	3999.68
419.73	3917.76
419.95	4083.65
420.16	3915.72
420.37	4104.13
420.58	4032.45
420.79	3948.48
421.00	4118.47
421.21	4212.67
421.42	4042.69
421.63	4173.76
421.85	4097.99
422.06	4100.03
422.27	4184.00
422.48	4126.66
422.69	4186.05
422.90	4349.89
423.11	4175.81
423.32	4304.83
423.53	4571.07
423.75	4333.50
423.96	4507.58
424.17	4433.85
424.38	4491.20
424.59	4423.61
424.80	4687.80
425.01	4526.01
425.22	4433.85
425.43	4419.52
425.64	4517.82
425.85	4720.57
426.06	4609.98
426.28	4575.16
426.49	4460.48
426.70	4472.76
426.91	4597.69
427.12	4667.32
427.33	4644.79
427.54	4693.94
427.75	4732.86
427.96	4863.93
428.17	4718.52
428.38	4794.29
428.59	4886.45
428.80	4734.90
429.01	4911.03
429.23	4769.72
429.44	5009.33
429.65	4945.84
429.86	4937.65
430.07	4855.73
430.28	4829.11
430.49	4915.12
430.70	5156.79
430.91	5218.22
431.12	5074.87
431.33	5167.03
431.54	5136.31
431.75	5097.39
431.96	5081.01
432.17	5062.58
432.38	5175.22
432.59	5343.15
432.80	5324.72
433.01	5326.77
433.22	5408.69
433.43	5246.90
433.64	5337.01
433.85	5287.86
434.06	5423.02
434.27	5439.40
434.49	5369.77
434.70	5541.80
434.91	5429.17
435.12	5490.60
435.33	5584.81
435.54	5545.90
435.75	5394.35
435.96	5568.43
436.17	5447.60
436.38	5640.11
436.59	5738.41
436.80	5556.14
437.01	5752.74
437.22	5808.04
437.43	5664.68
437.64	5609.39
437.85	5713.83
438.06	5955.49
438.27	5646.25
438.48	5810.09
438.69	5834.66
438.90	6037.41
439.11	5853.09
439.32	5869.48
439.53	5869.48
439.74	5887.91
439.95	5924.77
440.16	5986.21
440.37	6047.65
440.57	5814.18
440.78	6125.47
440.99	6043.56
441.20	6047.65
441.41	5932.97
441.62	6154.15
441.83	5904.29
442.04	6223.78
442.25	6213.54
442.46	6096.80
442.67	6336.42
442.88	6770.58
443.09	6010.79
443.30	6301.60
443.51	6338.46
443.72	6385.57
443.93	6082.47
444.14	6471.58
444.35	6270.88
444.56	6332.32
444.77	6457.25
444.98	6537.12
445.19	6508.44
445.40	6588.32
445.61	6455.20
445.81	6557.60
446.02	6569.88
446.23	6434.72
446.44	6444.96
446.65	6754.20
446.86	6629.27
447.07	6713.24
447.28	6891.41
447.49	6750.10
447.70	6604.70
447.91	6700.95
448.12	6832.02
448.33	6889.37
448.54	6938.52
448.74	6668.19
448.95	7014.29
449.16	6789.02
449.37	7135.12
449.58	6881.18
449.79	7045.01
450.00	6698.91
450.21	6975.38
450.42	7227.28
450.63	7124.88
450.84	6975.38
451.05	7262.10
451.25	7079.83
451.46	6897.56
451.67	7069.59
451.88	7344.02
452.09	7153.55
452.30	7116.69
452.51	7079.83
452.72	7274.38
452.93	7536.52
453.13	7210.90
453.34	7440.27
453.55	7368.59
453.76	7260.05
453.97	7753.61
454.18	7348.11
454.39	7387.02
454.60	7335.82
454.81	7477.13
455.01	7817.10
455.22	7325.58
455.43	7688.07
455.64	7884.68
455.85	7907.21
456.06	7980.93
456.27	7970.69
456.48	7802.76
456.68	7948.17
456.89	7860.10
457.10	8136.58
457.31	7796.62
457.52	7946.12
457.73	8157.06
457.94	8265.60
458.14	7978.89
458.35	8294.27
458.56	8167.30
458.77	8148.87
458.98	8261.51
459.19	8187.78
459.39	8331.14
459.60	8517.50
459.81	8279.94
460.02	8408.96
460.23	8562.56
460.44	8771.45
460.65	8466.30
460.85	8830.84
461.06	8757.11
461.27	8628.09
461.48	8908.66
461.69	8992.63
461.89	8753.02
462.10	8925.05
462.31	8781.69
462.52	8834.94
462.73	9060.21
462.94	9152.37
463.14	9228.15
463.35	9006.97
463.56	9678.70
463.77	9588.59
463.98	9273.20
464.18	9260.91
464.39	9738.09
464.60	9805.67
464.81	9521.01
465.02	9531.25
465.23	9828.20
465.43	9959.27
465.64	10090.34
465.85	9768.81
466.06	9787.24
466.27	10028.90
466.47	10061.67
466.68	10215.27
466.89	10014.57
467.10	10299.23
467.30	10100.58
467.51	10213.22
467.72	10479.46
467.93	10217.32
468.14	10504.03
468.34	10651.49
468.55	10678.11
468.76	10428.26
468.97	10590.05
469.17	10887.00
469.38	10968.92
469.59	11048.79
469.80	10966.87
470.01	11063.13
470.21	11024.22
470.42	11603.79
470.63	11331.41
470.84	11210.58
471.04	11575.12
471.25	11626.32
471.46	11568.98
471.67	11753.29
471.87	11794.25
472.08	11923.27
472.29	12013.38
472.50	11536.21
472.70	11693.90
472.91	11945.80
473.12	12414.79
473.33	12293.96
473.53	12298.05
473.74	12070.73
473.95	12447.55
474.16	12756.80
474.36	12646.21
474.57	12734.27
474.78	12975.93
474.99	12853.05
475.19	12814.14
475.40	12980.03
475.61	13078.33
475.81	13242.17
476.02	13539.12
476.23	13307.70
476.44	13293.37
476.64	13840.17
476.85	13774.64
477.06	13514.55
477.27	14040.87
477.47	14030.63
477.68	13989.67
477.89	14032.68
478.09	14245.67
478.30	14200.62
478.51	14260.01
478.71	14411.56
478.92	14606.11
479.13	14735.14
479.34	14876.44
479.54	14583.59
479.75	14894.88
479.96	14858.01
480.16	15025.95
480.37	15152.92
480.58	15122.20
480.78	15361.81
480.99	15376.15
481.20	15691.54
481.41	15562.51
481.61	15888.14
481.82	15867.66
482.03	15761.17
482.23	15709.97
482.44	16125.71
482.65	16109.32
482.85	16383.75
483.06	16434.95
483.27	16649.99
483.47	16518.92
483.68	16402.18
483.89	16572.16
484.09	16533.25
484.30	16578.31
484.51	16817.92
484.71	16948.99
484.92	16838.40
485.13	17182.46
485.33	17004.28
485.54	17151.74
485.75	17473.27
485.95	17592.05
486.16	17495.80
486.37	17710.83
486.57	17522.42
486.78	17598.20
486.98	17719.03
487.19	17903.34
487.40	18419.43
487.60	18159.34
487.81	18384.62
488.02	18046.70
488.22	18390.76
488.43	18444.01
488.64	18507.49
488.84	18484.97
489.05	18720.48
489.25	18831.07
489.46	18861.79
489.67	18786.02
489.87	19035.87
490.08	18962.14
490.29	19111.64
490.49	19578.58
490.70	19304.15
490.90	19336.92
491.11	19584.73
491.32	19838.67
491.52	19633.88
491.73	19822.29
491.94	19951.31
492.14	19928.78
492.35	20145.87
492.55	20309.71
492.76	20051.66
492.97	20321.99
493.17	20446.92
493.38	20545.22
493.58	20602.57
493.79	20752.07
494.00	20467.40
494.20	20874.95
494.41	20786.88
494.61	21323.45
494.82	20930.24
495.02	20831.94
495.23	21378.75
495.44	21057.21
495.64	21548.73
495.85	21513.91
496.05	21696.18
496.26	21409.47
496.47	22101.68
496.67	21679.80
496.88	22179.50
497.08	21923.51
497.29	22361.77
497.49	22255.28
497.70	22208.17
497.91	22331.05
498.11	22679.21
498.32	22427.31
498.52	22429.35
498.73	22849.19
498.93	23010.98
499.14	23021.22
499.34	23195.29
499.55	23246.49
499.76	23082.66
499.96	23430.81
500.17	23258.78
500.37	23645.85
500.58	23342.75
500.78	23422.62
500.99	23678.61
501.19	23684.76
501.40	23703.19
501.60	23785.11
501.81	23926.42
502.02	24010.39
502.22	23682.71
502.43	24241.81
502.63	24393.36
502.84	24604.30
503.04	24573.58
503.25	24293.01
503.45	24620.68
503.66	24798.85
503.86	24741.51
504.07	24858.24
504.27	24913.54
504.48	25099.90
504.68	25048.71
504.89	25097.86
505.09	25333.37
505.30	25255.55
505.50	25261.69
505.71	25384.57
505.91	25650.81
506.12	25804.41
506.32	25486.97
506.53	25689.72
506.73	25871.99
506.94	25749.11
507.14	25896.56
507.35	26152.56
507.55	26140.27
507.76	26332.78
507.96	26326.64
508.17	25843.32
508.37	26367.60
508.58	26383.98
508.78	26539.63
508.99	26467.95
509.19	26703.46
509.40	26728.04
509.60	26513.00
509.81	26728.04
510.01	26601.07
510.22	26904.17
510.42	26689.13
510.63	27215.46
510.83	27330.14
511.04	26814.05
511.24	27414.11
511.44	27088.48
511.65	27434.59
511.85	27313.76
512.06	27342.43
512.26	27493.98
512.47	27493.98
512.67	27436.64
512.88	27616.86
513.08	27545.18
513.29	27811.42
513.49	28028.50
513.69	27653.72
513.90	27936.34
514.10	28008.02
514.31	27879.00
514.51	28083.80
514.72	28059.22
514.92	28003.92
515.13	27999.83
515.33	28229.20
515.53	28038.74
515.74	27950.68
515.94	28569.16
516.15	28608.08
516.35	28517.96
516.56	28477.01
516.76	28118.61
516.96	28786.25
517.17	28603.98
517.37	28653.13
517.58	28794.44
517.78	28894.79
517.99	28831.30
518.19	29077.06
518.39	28982.85
518.60	29167.17
518.80	28980.81
519.01	29591.10
519.21	29052.48
519.41	29077.06
519.62	29269.57
519.82	29226.56
520.03	29445.69
520.23	29572.67
520.43	29339.20
520.64	29910.58
520.84	29869.62
521.05	29840.95
521.25	29941.30
521.45	29910.58
521.66	30228.02
521.86	29832.76
522.07	29922.87
522.27	30051.89
522.47	30135.86
522.68	30266.93
522.88	30551.60
523.08	30832.17
523.29	30264.88
523.49	30469.68
523.70	30453.30
523.90	30766.63
524.10	30377.52
524.31	30926.38
524.51	30578.22
524.71	30869.03
524.92	30522.93
525.12	31114.79
525.33	31243.81
525.53	31309.35
525.73	31327.78
525.94	31045.16
526.14	31409.70
526.34	31491.62
526.55	31561.25
526.75	31768.09
526.95	31749.66
527.16	31944.22
527.36	31692.32
527.56	31921.69
527.77	32095.77
527.97	31923.74
528.17	31686.17
528.38	32433.68
528.58	32230.93
528.78	32560.66
528.99	31999.51
529.19	32646.67
529.39	32519.70
529.60	32730.64
529.80	32976.39
530.00	32618.00
530.21	33082.89
530.41	32992.78
530.61	33029.64
530.82	33213.96
531.02	33164.81
531.22	33347.08
531.43	33156.61
531.63	33449.47
531.83	33844.73
532.04	34037.24
532.24	33500.67
532.44	33699.33
532.64	33940.99
532.85	34002.43
533.05	33916.41
533.25	34272.76
533.46	34082.30
533.66	34541.04
533.86	34446.83
534.07	34563.57
534.27	34618.86
534.47	34698.73
534.67	34743.79
534.88	35083.75
535.08	34797.04
535.28	34915.82
535.49	35163.62
535.69	35653.09
535.89	35419.62
536.09	35505.63
536.30	35739.10
536.50	35900.89
536.70	35913.18
536.91	35739.10
537.11	35968.48
537.31	35974.62
537.51	36060.63
537.72	36113.88
537.92	36414.93
538.12	36558.29
538.32	36736.46
538.53	36724.18
538.73	36476.37
538.93	36619.73
539.13	36822.48
539.34	37037.51
539.54	36763.09
539.74	37043.66
539.94	37043.66
540.15	37031.37
540.35	37649.86
540.55	37649.86
540.75	37316.04
540.96	37762.50
541.16	37737.92
541.36	37733.82
541.56	37744.06
541.77	38348.21
541.97	38172.09
542.17	38491.57
542.37	38213.05
542.58	38337.98
542.78	38639.03
542.98	38290.87
543.18	38796.72
543.38	38940.08
543.59	39355.82
543.79	38647.22
543.99	38649.27
544.19	39169.45
544.40	39118.25
544.60	39499.17
544.80	39011.76
545.00	39312.81
545.20	39450.02
545.41	39548.32
545.61	39650.72
545.81	39894.43
546.01	39736.74
546.21	39878.05
546.42	39538.08
546.62	39902.62
546.82	39888.29
547.02	40072.60
547.22	40453.53
547.43	39947.68
547.63	40512.92
547.83	40433.05
548.03	40375.70
548.23	40549.78
548.44	40693.14
548.64	40600.98
548.84	40736.15
549.04	40560.02
549.24	40830.35
549.45	41282.95
549.65	40682.90
549.85	40861.07
550.05	41221.52
550.25	41256.33
550.45	41964.93
550.66	41239.95
550.86	41276.81
551.06	41661.83
551.26	41409.93
551.46	41530.76
551.66	42005.89
551.87	41471.37
552.07	41887.10
552.27	42179.96
552.47	41676.16
552.67	42284.41
552.87	42096.00
553.07	42126.72
553.28	42055.04
553.48	42331.51
553.68	42161.53
553.88	42435.96
554.08	42268.03
554.28	42378.62
554.48	42538.36
554.69	42358.14
554.89	42438.01
555.09	42874.23
555.29	42724.72
555.49	42972.53
555.69	42651.00
555.89	43095.41
556.10	43418.99
556.30	42849.65
556.50	42751.35
556.70	42898.80
556.90	43189.61
557.10	43128.17
557.30	42505.59
557.50	43480.42
557.70	43275.63
557.91	43390.31
558.11	43398.51
558.31	43476.33
558.51	43154.80
558.71	43124.08
558.91	43242.86
559.11	43437.42
559.31	43453.80
559.51	43343.21
559.72	43455.85
559.92	43697.51
560.12	43738.47
560.32	43709.80
560.52	43582.82
560.72	43902.31
560.92	44037.47
561.12	43920.74
561.32	44412.25
561.52	43709.80
561.72	44154.21
561.93	43619.69
562.13	44131.68
562.33	43543.91
562.53	44668.25
562.73	44070.24
562.93	43990.37
563.13	44051.81
563.33	43865.44
563.53	44141.92
563.73	43998.56
563.93	44103.01
564.13	44510.55
564.33	44514.65
564.53	44389.72
564.74	44463.45
564.94	44381.53
565.14	44600.66
565.34	44356.96
565.54	44469.59
565.74	44537.18
565.94	44717.40
566.14	44414.30
566.34	44498.26
566.54	44508.50
566.74	44217.69
566.94	44811.60
567.14	45135.18
567.34	44402.01
567.54	44942.67
567.74	44897.62
567.94	44174.69
568.14	44672.34
568.34	44635.48
568.54	45172.05
568.74	45002.07
568.94	44811.60
569.14	45307.21
569.34	44963.15
569.54	45167.95
569.75	44860.76
569.95	45077.84
570.15	45102.42
570.35	45045.07
570.55	44914.00
570.75	44985.68
570.95	44932.43
571.15	45415.76
571.35	44948.82
571.55	44881.24
571.75	45106.51
571.95	45387.08
572.15	45204.81
572.35	45458.76
572.55	45616.46
572.75	45434.19
572.95	45319.50
573.15	45675.85
573.35	45725.00
573.55	45444.43
573.75	45086.03
573.95	45143.38
574.15	45501.77
574.35	45512.01
574.55	45458.76
574.75	45358.41
574.95	45612.36
575.15	45456.71
575.34	45366.60
575.54	45757.77
575.74	45950.27
575.94	46161.22
576.14	45880.64
576.34	46093.63
576.54	46003.52
576.74	45944.13
576.94	45894.98
577.14	45929.80
577.34	46142.78
577.54	46003.52
577.74	46257.47
577.94	46077.25
578.14	46351.68
578.34	46505.27
578.54	46134.59
578.74	46253.37
578.94	46679.35
579.14	46335.29
579.34	46603.58
579.54	46470.46
579.74	46894.39
579.94	46486.84
580.13	46753.08
580.33	46892.34
580.53	46810.42
580.73	46814.52
580.93	46791.99
581.13	47252.78
581.33	46761.27
581.53	47199.54
581.73	47338.80
581.93	47240.50
582.13	47586.60
582.33	47097.14
582.53	47224.11
582.73	47211.82
582.92	47113.52
583.12	47547.69
583.32	47293.74
583.52	47263.02
583.72	47605.03
583.92	47607.08
584.12	47695.14
584.32	47924.52
584.52	47547.69
584.72	47938.85
584.92	47981.86
585.11	48338.21
585.31	48004.39
585.51	48405.79
585.71	47953.19
585.91	48416.03
586.11	47979.81
586.31	47955.24
586.51	47959.33
586.71	48301.34
586.91	48493.85
587.10	48694.55
587.30	48495.90
587.50	48743.70
587.70	49052.95
587.90	48373.02
588.10	49024.28
588.30	48260.38
588.50	49550.60
588.69	49143.06
588.89	48948.50
589.09	48987.41
589.29	49378.57
589.49	49696.01
589.69	49095.95
589.89	49360.14
590.08	49528.08
590.28	49313.04
590.48	49427.73
590.68	49149.20
590.88	49685.77
591.08	49401.10
591.28	49538.32
591.47	50042.12
591.67	49851.66
591.87	50001.16
592.07	50273.54
592.27	49886.47
592.47	50095.36
592.67	50232.58
592.86	50472.19
593.06	49857.80
593.26	50529.53
593.46	50664.70
593.66	50472.19
593.86	50525.44
594.05	50664.70
594.25	50889.98
594.45	50480.38
594.65	50851.06
594.85	50574.59
595.05	50664.70
595.24	51442.93
595.44	50894.07
595.64	50896.12
595.84	51092.72
596.04	51021.05
596.23	51406.06
596.43	51387.63
596.63	51139.83
596.83	51487.98
597.03	51518.70
597.22	52124.90
597.42	51467.50
597.62	52155.62
597.82	51750.12
598.02	51653.87
598.21	52307.17
598.41	51870.95
598.61	52243.68
598.81	52196.58
599.01	52341.99
599.20	52317.41
599.40	52202.72
599.60	52745.44
599.80	52176.10
600.00	52722.91
600.19	52786.39
600.39	52438.24
600.59	52763.87
600.79	52987.10
600.98	53124.31
601.18	52980.95
601.38	53040.34
601.58	53003.48
601.78	52958.42
601.97	53077.21
602.17	53695.69
602.37	53249.24
602.57	53497.04
602.76	53431.50
602.96	53644.49
603.16	53906.63
603.36	53134.55
603.55	54170.82
603.75	53621.97
603.95	54289.60
604.15	54248.64
604.34	54039.75
604.54	54305.99
604.74	54052.04
604.94	54461.63
605.13	54598.85
605.33	54500.54
605.53	54236.36
605.73	54510.78
605.92	54621.37
606.12	54672.57
606.32	54764.73
606.52	54160.58
606.71	54334.66
606.91	54703.29
607.11	54820.03
607.30	54754.49
607.50	55030.97
607.70	55188.66
607.90	54615.23
608.09	54994.10
608.29	55018.68
608.49	55059.64
608.68	55325.88
608.88	55014.58
609.08	54971.58
609.28	55260.34
609.47	55172.28
609.67	55422.13
609.87	55510.19
610.06	55735.47
610.26	55418.03
610.46	55409.84
610.66	55334.07
610.85	55538.86
611.05	55524.53
611.25	55522.48
611.44	55444.66
611.64	55334.07
611.84	55219.38
612.03	55268.53
612.23	55635.12
612.43	55766.19
612.62	55452.85
612.82	55764.14
613.02	55463.09
613.21	55585.97
613.41	55594.16
613.61	55432.37
613.80	55325.88
614.00	55461.04
614.20	55725.23
614.39	55426.23
614.59	55686.32
614.79	55825.58
614.98	55944.36
615.18	55418.03
615.38	55889.07
615.57	55432.37
615.77	55727.28
615.97	55829.68
616.16	56001.71
616.36	55561.39
616.56	56333.48
616.75	55811.24
616.95	55327.92
617.15	55776.43
617.34	55610.54
617.54	55776.43
617.74	55968.94
617.93	55706.80
618.13	55710.89
618.32	55520.43
618.52	55563.44
618.72	55669.93
618.91	55719.09
619.11	55076.02
619.31	55473.33
619.50	55532.72
619.70	55391.41
619.90	55780.52
620.09	55448.75
620.29	55573.68
620.48	55418.03
620.68	55389.36
620.88	55387.31
621.07	55391.41
621.27	55418.03
621.46	55375.03
621.66	55530.67
621.86	55610.54
622.05	55155.89
622.25	55508.14
622.44	55411.89
622.64	55653.55
622.84	55440.56
623.03	54887.61
623.23	55594.16
623.42	55383.22
623.62	55112.89
623.82	55694.51
624.01	54990.01
624.21	55037.11
624.40	55057.59
624.60	55051.45
624.80	55266.48
624.99	55131.32
625.19	55004.34
625.38	54869.18
625.58	55407.79
625.77	55620.78
625.97	55375.03
626.17	54727.87
626.36	55049.40
626.56	55159.99
626.75	54305.99
626.95	55129.27
627.14	54623.42
627.34	55311.54
627.54	54817.98
627.73	54783.16
627.93	55086.26
628.12	54381.76
628.32	54811.84
628.51	54828.22
628.71	54660.29
628.90	54967.48
629.10	54615.23
629.30	54760.64
629.49	54961.34
629.69	54604.99
629.88	54973.63
630.08	54879.42
630.27	54629.57
630.47	55030.97
630.66	54908.09
630.86	54891.71
631.05	54047.94
631.25	55254.20
631.44	54973.63
631.64	54768.83
631.84	54420.67
632.03	55233.72
632.23	54596.80
632.42	54785.21
632.62	54711.49
632.81	54389.95
633.01	54926.52
633.20	54893.75
633.40	55024.82
633.59	54703.29
633.79	54297.80
633.98	54527.17
634.18	54631.61
634.37	54860.99
634.57	54713.53
634.76	55227.57
634.96	54308.04
635.15	54748.35
635.35	54983.86
635.54	54809.79
635.74	54600.89
635.93	54676.67
636.13	54779.07
636.32	54785.21
636.52	54353.09
636.71	54910.14
636.91	54639.81
637.10	54277.32
637.30	54985.91
637.49	54537.41
637.69	54588.61
637.88	55170.23
638.08	54744.25
638.27	54772.92
638.46	55143.61
638.66	54705.34
638.85	54586.56
639.05	54662.33
639.24	55327.92
639.44	54627.52
639.63	54752.44
639.83	54742.20
640.02	55055.54
640.22	54729.92
640.41	55137.46
640.61	54752.44
640.80	54813.88
640.99	54557.89
641.19	54754.49
641.38	55049.40
641.58	54777.02
641.77	54961.34
641.97	54729.92
642.16	54934.71
642.36	55203.00
642.55	55139.51
642.74	54916.28
642.94	55747.76
643.13	54701.25
643.33	54916.28
643.52	55203.00
643.72	54807.74
643.91	55129.27
644.10	55301.30
644.30	55018.68
644.49	55188.66
644.69	55506.10
644.88	55489.71
645.08	55317.68
645.27	54924.47
645.46	54641.85
645.66	55235.77
645.85	55059.64
646.05	55637.17
646.24	55415.99
646.43	55352.50
646.63	55788.72
646.82	55608.50
647.02	55612.59
647.21	55762.09
647.40	55714.99
647.60	55614.64
647.79	55841.96
647.99	55966.89
648.18	55192.76
648.37	56190.12
648.57	56063.14
648.76	55792.81
648.96	55764.14
649.15	55788.72
649.34	56093.86
649.54	55938.22
649.73	56028.33
649.92	56124.58
650.12	55790.76
650.31	56034.47
650.51	55747.76
650.70	56136.87
650.89	55768.24
651.09	56472.74
651.28	56104.10
651.47	56521.89
651.67	56358.05
651.86	56761.50
652.06	55979.18
652.25	56693.92
652.44	56366.24
652.64	55913.64
652.83	56093.86
653.02	56128.68
653.22	56247.46
653.41	56077.48
653.60	55954.60
653.80	56136.87
653.99	56560.80
654.18	56603.81
654.38	56636.58
654.57	56915.10
654.76	56482.98
654.96	56386.72
655.15	56485.03
655.34	56648.86
655.54	56542.37
655.73	56368.29
655.92	56999.07
656.12	56564.90
656.31	56710.30
656.50	56655.01
656.70	56822.94
656.89	56939.68
657.08	57144.47
657.28	56829.08
657.47	57160.86
657.66	56941.72
657.86	56829.08
658.05	56913.05
658.24	57339.03
658.43	57015.45
658.63	57248.92
658.82	57132.18
659.01	57048.22
659.21	57597.07
659.40	57457.81
659.59	57240.73
659.79	57509.01
659.98	57345.17
660.17	57447.57
660.36	57279.64
660.56	56972.44
660.75	57267.35
660.94	57480.34
661.14	57830.54
661.33	57193.62
661.52	57097.37
661.71	57605.26
661.91	57627.79
662.10	57459.86
662.29	57812.11
662.49	57185.43
662.68	57377.94
662.87	57812.11
663.06	57693.33
663.26	57291.93
663.45	58395.78
663.64	57773.20
663.83	57980.04
664.03	57857.17
664.22	57611.41
664.41	57973.90
664.60	57492.63
664.80	57801.87
664.99	57453.72
665.18	57914.51
665.37	58014.86
665.57	57930.89
665.76	57529.49
665.95	57664.66
666.14	57758.86
666.34	57701.52
666.53	58324.10
666.72	57883.79
666.91	57590.93
667.11	57853.07
667.30	57805.97
667.49	57902.22
667.68	58045.58
667.87	57572.50
668.07	57975.95
668.26	58299.53
668.45	58057.87
668.64	57902.22
668.84	58672.26
669.03	58324.10
669.22	58008.71
669.41	57965.71
669.60	58258.57
669.80	58072.20
669.99	58037.39
670.18	57805.97
670.37	58625.15
670.57	58541.19
670.76	58055.82
670.95	57891.98
671.14	57898.12
671.33	57941.13
671.53	58494.08
671.72	58451.08
671.91	58045.58
672.10	57914.51
672.29	58137.74
672.48	58031.24
672.68	58694.78
672.87	57574.55
673.06	57789.58
673.25	58227.85
673.44	57875.60
673.64	57777.29
673.83	57959.56
674.02	57832.59
674.21	57480.34
674.40	57996.43
674.59	57296.02
674.79	58031.24
674.98	57984.14
675.17	58264.71
675.36	57719.95
675.55	58092.68
675.74	58168.46
675.94	57605.26
676.13	58127.50
676.32	58315.91
676.51	58451.08
676.70	57990.28
676.89	58168.46
677.08	58057.87
677.28	57568.40
677.47	58193.03
677.66	57957.52
677.85	57769.10
678.04	58031.24
678.23	58143.88
678.42	57955.47
678.62	57851.02
678.81	58197.13
679.00	58029.19
679.19	58416.26
679.38	57894.03
679.57	57377.94
679.76	57703.57
679.96	57728.14
680.15	57711.76
680.34	57504.91
680.53	57617.55
680.72	57808.01
680.91	58072.20
681.10	57670.80
681.29	57762.96
681.48	57525.39
681.68	57578.64
681.87	57418.90
682.06	57660.56
682.25	56814.75
682.44	57310.36
682.63	57607.31
682.82	57277.59
683.01	57240.73
683.20	57334.93
683.39	57523.35
683.59	57408.66
683.78	57232.53
683.97	57005.21
684.16	57416.85
684.35	56798.37
684.54	56954.01
684.73	57263.25
684.92	56695.97
685.11	56931.48
685.30	56738.97
685.49	56779.93
685.69	56734.88
685.88	57015.45
686.07	56503.46
686.26	56695.97
686.45	56702.11
686.64	56847.52
686.83	56915.10
687.02	56579.23
687.21	57044.12
687.40	56769.69
687.59	56878.24
687.78	56841.37
687.97	56933.53
688.16	56380.58
688.35	56243.37
688.54	56179.88
688.74	56439.97
688.93	56304.80
689.12	56147.11
689.31	56575.14
689.50	56368.29
689.69	56444.07
689.88	56226.98
690.07	56183.97
690.26	56534.18
690.45	56513.70
690.64	56157.35
690.83	55891.12
691.02	55735.47
691.21	55616.69
691.40	55747.76
691.59	56106.15
691.78	55809.20
691.97	56196.26
692.16	55792.81
692.35	56063.14
692.54	56095.91
692.73	55882.92
692.92	55837.87
693.11	55461.04
693.30	55549.10
693.49	55692.46
693.68	55657.65
693.87	55981.23
694.06	55219.38
694.25	55471.28
694.44	55065.78
694.63	55448.75
694.82	55489.71
695.01	55260.34
695.20	54938.81
695.39	55092.41
695.58	55166.13
695.77	54607.04
695.96	54711.49
696.15	55264.44
696.34	54936.76
696.53	54860.99
696.72	54983.86
696.91	54879.42
697.10	54801.60
697.29	54795.45
697.48	55170.23
697.67	54584.51
697.86	54416.58
698.05	54256.84
698.24	54543.55
698.43	53875.91
698.62	54875.32
698.81	54484.16
699.00	54715.58
699.19	54068.42
699.38	54424.77
699.57	53834.95
699.76	54768.83
699.95	54199.49
700.14	53525.71
700.32	53707.98
700.51	53581.01
700.70	54334.66
700.89	53877.96
701.08	53732.56
701.27	53937.35
701.46	53904.59
701.65	53189.84
701.84	53738.70
702.03	53652.69
702.22	53421.26
702.41	53685.45
702.60	53439.70
702.79	53525.71
702.98	53271.76
703.17	53609.68
703.35	53376.21
703.54	53548.24
703.73	53656.78
703.92	53699.79
704.11	53005.53
704.30	52835.55
704.49	53224.66
704.68	53138.65
704.87	53079.25
705.06	52874.46
705.25	52688.09
705.43	52862.17
705.62	53054.68
705.81	53048.53
706.00	52972.76
706.19	52765.91
706.38	52483.30
706.57	52753.63
706.76	52319.46
706.95	52604.13
707.14	52204.77
707.32	52339.94
707.51	52194.53
707.70	52548.83
707.89	52387.04
708.08	52380.90
708.27	52462.82
708.46	52798.68
708.65	51717.35
708.84	52745.44
709.02	52835.55
709.21	52118.76
709.40	52339.94
709.59	52475.10
709.78	51782.89
709.97	52274.40
710.16	52157.67
710.34	51881.19
710.53	51940.58
710.72	51557.61
710.91	51868.90
711.10	51813.61
711.29	52387.04
711.48	52030.69
711.66	51801.32
711.85	51344.62
712.04	51221.75
712.23	51856.62
712.42	51586.28
712.61	51641.58
712.80	51434.74
712.98	51889.38
713.17	51352.82
713.36	51479.79
713.55	51293.43
713.74	51289.33
713.93	51823.85
714.11	51223.79
714.30	51090.68
714.49	50908.41
714.68	51205.36
714.87	51242.23
715.06	51512.56
715.24	51031.29
715.43	51033.33
715.62	50758.91
715.81	50816.25
716.00	51299.57
716.18	50435.33
716.37	50644.22
716.56	50476.29
716.75	50771.19
716.94	50873.59
717.12	50441.47
717.31	50992.37
717.50	50943.22
717.69	50679.03
717.88	50638.08
718.06	50380.03
718.25	50289.92
718.44	50136.32
718.63	50464.00
718.82	50480.38
719.00	50154.75
719.19	50205.95
719.38	50457.85
719.57	50142.47
719.76	49972.49
719.94	49900.81
720.13	49765.64
720.32	49927.43
720.51	49822.98
720.69	50017.54
720.88	49693.96
721.07	49351.95
721.26	49409.29
721.44	49816.84
721.63	49485.07
721.82	49534.22
722.01	49325.33
722.20	49663.24
722.38	49384.72
722.57	48999.70
722.76	49530.12
722.95	49454.35
723.13	48925.97
723.32	48823.58
723.51	49026.32
723.70	48725.27
723.88	49001.75
724.07	48954.64
724.26	49245.46
724.44	48491.80
724.63	48766.23
724.82	48968.98
725.01	49009.94
725.19	49233.17
725.38	48577.82
725.57	48413.98
725.76	49007.89
725.94	48082.21
726.13	48483.61
726.32	48444.70
726.51	48389.41
726.69	48780.57
726.88	48805.14
727.07	48635.16
727.25	48727.32
727.44	48266.53
727.63	48487.71
727.82	48555.29
728.00	48770.33
728.19	48340.25
728.38	48520.48
728.56	48321.82
728.75	48837.91
728.94	48739.61
729.12	48522.52
729.31	48669.98
729.50	48436.51
729.69	48717.08
729.87	48669.98
730.06	48403.74
730.25	48370.97
730.43	48930.07
730.62	48358.69
730.81	48792.86
730.99	48612.63
731.18	48274.72
731.37	48772.38
731.55	49255.70
731.74	48719.13
731.93	48848.15
732.11	48678.17
732.30	48659.74
732.49	48305.44
732.67	48813.34
732.86	48481.56
733.05	48473.37
733.23	48590.11
733.42	48600.35
733.61	48747.80
733.79	48432.41
733.98	48317.73
734.17	48731.42
734.35	48442.65
734.54	48395.55
734.73	48747.80
734.91	48747.80
735.10	48280.86
735.29	49151.25
735.47	48069.92
735.66	48629.02
735.84	48569.63
736.03	48241.95
736.22	48434.46
736.40	48190.75
736.59	48178.46
736.78	48485.66
736.96	48641.31
737.15	48696.60
737.33	48221.47
737.52	48166.18
737.71	48114.98
737.89	47969.57
738.08	47742.25
738.27	48317.73
738.45	49044.76
738.64	48297.25
738.82	48565.53
739.01	48211.23
739.20	48047.39
739.38	48356.64
739.57	48366.88
739.75	48604.44
739.94	47797.54
740.13	48438.56
740.31	48223.52
740.50	48352.54
740.68	48094.50
740.87	48145.70
741.06	47998.24
741.24	47945.00
741.43	48114.98
741.61	48303.39
741.80	47893.80
741.99	47914.28
742.17	47805.73
742.36	48084.26
742.54	48063.78
742.73	48004.39
742.91	47609.13
743.10	48041.25
743.29	48071.97
743.47	47922.47
743.66	47754.54
743.84	47824.17
744.03	47832.36
744.21	47748.39
744.40	47789.35
744.59	47570.22
744.77	47398.19
744.96	47301.93
745.14	47842.60
745.33	47645.99
745.51	47736.10
745.70	47732.01
745.88	47891.75
746.07	47734.06
746.26	47392.04
746.44	47326.51
746.63	47258.93
746.81	47650.09
747.00	47314.22
747.18	48086.31
747.37	47494.44
747.55	47066.42
747.74	47973.67
747.92	47478.06
748.11	47250.74
748.29	47301.93
748.48	47103.28
748.66	47093.04
748.85	47486.25
749.03	47250.74
749.22	47568.17
749.41	47168.82
749.59	47017.27
749.78	47166.77
749.96	47117.62
750.15	47277.36
750.33	47267.12
750.52	46947.64
750.70	47109.43
750.89	47158.58
751.07	46742.84
751.26	46441.79
751.44	46939.44
751.63	46773.56
751.81	46263.61
752.00	46396.73
752.18	46593.34
752.37	46783.80
752.55	46316.86
752.74	46896.44
752.92	46488.89
753.10	46499.13
753.29	46486.84
753.47	46619.96
753.66	46019.91
753.84	46878.00
754.03	46433.60
754.21	46314.81
754.40	46177.60
754.58	46417.21
754.77	46415.16
754.95	46075.20
755.14	46150.98
755.32	46314.81
755.51	45831.49
755.69	45827.40
755.88	46107.97
756.06	46198.08
756.24	45952.32
756.43	45507.91
756.61	46183.74
756.80	45808.96
756.98	45387.08
757.17	45745.48
757.35	45716.81
757.54	45544.78
757.72	45913.41
757.90	45464.91
758.09	45059.41
758.27	45331.79
758.46	45335.88
758.64	45372.75
758.83	45647.18
759.01	45557.06
759.19	45139.28
759.38	45020.50
759.56	45860.16
759.75	45233.49
759.93	45110.61
760.12	44907.86
760.30	45446.47
760.48	45223.25
760.67	44844.37
760.85	44858.71
761.04	45339.98
761.22	45266.25
761.40	44887.38
761.59	45059.41
761.77	44830.04
761.96	44520.79
762.14	44508.50
762.32	44316.00
762.51	44733.78
762.69	44494.17
762.88	44365.15
763.06	44596.57
763.24	44582.23
763.43	44432.73
763.61	44432.73
763.80	44535.13
763.98	44111.20
764.16	44215.65
764.35	44000.61
764.53	43758.95
764.72	44029.28
764.90	44051.81
765.08	44041.57
765.27	44168.54
765.45	43640.17
765.63	43357.55
765.82	43994.46
766.00	43193.71
766.18	43404.65
766.37	43779.43
766.55	43228.52
766.74	43562.34
766.92	43115.89
767.10	43464.04
767.29	43668.84
767.47	43040.11
767.65	43570.54
767.84	43156.85
768.02	43214.19
768.20	42929.52
768.39	43165.04
768.57	42589.56
768.75	42956.14
768.94	42849.65
769.12	42673.52
769.30	42851.70
769.49	42788.21
769.67	42683.76
769.85	42554.74
770.04	42718.58
770.22	42225.02
770.40	42986.86
770.59	42612.09
770.77	42196.35
770.95	42515.83
771.14	42098.05
771.32	41940.35
771.50	42114.43
771.69	42360.19
771.87	42059.13
772.05	41942.40
772.24	41647.49
772.42	41854.34
772.60	41948.54
772.78	41862.53
772.97	41913.73
773.15	42145.15
773.33	41760.13
773.52	41471.37
773.70	41788.80
773.88	41684.36
774.07	41450.89
774.25	41725.32
774.43	41725.32
774.61	41856.39
774.80	41670.02
774.98	41444.74
775.16	41596.29
775.34	41432.46
775.53	41829.76
775.71	41633.16
775.89	41604.49
776.08	41444.74
776.26	41231.75
776.44	41422.22
776.62	41745.80
776.81	41096.59
776.99	41387.40
777.17	41391.50
777.35	41563.53
777.54	41999.74
777.72	41344.39
777.90	41475.46
778.08	41788.80
778.27	41110.92
778.45	41682.31
778.63	41907.58
778.81	41414.02
779.00	42208.64
779.18	41465.22
779.36	41985.41
779.54	41534.85
779.73	41446.79
779.91	42048.89
780.09	41674.12
780.27	42206.59
780.46	41981.31
780.64	42110.33
780.82	41835.91
781.00	41713.03
781.19	41768.32
781.37	42452.34
781.55	42065.28
781.73	42294.65
781.91	41799.04
782.10	41729.41
782.28	41981.31
782.46	42235.26
782.64	42036.61
782.82	42063.23
783.01	41999.74
783.19	42067.33
783.37	42122.62
783.55	41887.10
783.74	41973.12
783.92	42169.72
784.10	42331.51
784.28	41860.48
784.46	41870.72
784.64	41661.83
784.83	41962.88
785.01	41713.03
785.19	41684.36
785.37	41885.06
785.55	41522.57
785.74	41233.80
785.92	41307.53
786.10	41784.71
786.28	41969.02
786.46	41502.09
786.64	41264.52
786.83	41454.98
787.01	41733.51
787.19	41874.82
787.37	41434.50
787.55	41463.18
787.74	41235.85
787.92	41002.38
788.10	40990.09
788.28	40695.19
788.46	40869.26
788.64	41018.77
788.82	41502.09
789.01	40867.22
789.19	41272.71
789.37	40431.00
789.55	40605.08
789.73	40482.20
789.91	40758.67
790.09	40304.02
790.28	40052.12
790.46	40476.05
790.64	40488.34
790.82	40318.36
791.00	40314.26
791.18	39765.41
791.36	39994.78
791.55	39957.92
791.73	39867.81
791.91	40021.41
792.09	40142.24
792.27	39648.68
792.45	39667.11
792.63	39839.14
792.81	39515.56
793.00	39609.76
793.18	39638.44
793.36	39550.37
793.54	38872.49
793.72	39077.29
793.90	38759.86
794.08	38815.15
794.26	38712.75
794.44	38759.86
794.62	38434.23
794.81	38743.47
794.99	38563.25
795.17	38286.78
795.35	38362.55
795.53	38315.45
795.71	38563.25
795.89	37959.10
796.07	37969.34
796.25	37572.03
796.43	37615.04
796.61	38110.65
796.80	37475.78
796.98	37725.63
797.16	37195.21
797.34	37240.26
797.52	37410.25
797.70	37371.33
797.88	37240.26
798.06	37166.54
798.24	37033.42
798.42	36869.58
798.60	36697.55
798.78	36793.81
798.96	37086.67
799.14	36388.31
799.32	36593.11
799.51	36363.73
799.69	36605.39
799.87	36388.31
800.05	35829.21
800.23	36367.83
800.41	35962.33
800.59	36089.31
800.77	35945.95
800.95	35558.88
801.13	35300.84
801.31	34987.50
801.49	35593.70
801.67	35507.68
801.85	35378.66
802.03	34928.11
802.21	35286.50
802.39	34952.68
802.57	35167.72
802.75	34668.02
802.93	34948.59
803.11	34838.00
803.29	34745.84
803.47	34575.86
803.65	34819.56
803.83	34469.36
804.01	34303.48
804.19	34399.73
804.37	34020.86
804.55	34381.30
804.73	34276.85
804.91	34014.71
805.09	33904.12
805.27	33900.03
805.45	34002.43
805.63	34190.84
805.81	33787.39
805.99	33469.95
806.17	33611.26
806.35	33437.19
806.53	32945.67
806.71	33084.94
806.89	33379.84
807.07	33371.65
807.25	33271.30
807.43	33222.15
807.61	33150.47
807.79	33209.86
807.97	32744.97
808.15	32634.38
808.33	32904.71
808.51	32615.95
808.69	32853.51
808.87	32357.91
809.05	32355.86
809.23	32724.49
809.41	32476.69
809.59	32437.78
809.77	32310.80
809.95	32046.62
810.13	32069.14
810.31	31643.17
810.49	32046.62
810.67	31852.06
810.84	32103.96
811.02	31913.50
811.20	31731.23
811.38	31657.50
811.56	31387.17
811.74	31825.43
811.92	31598.11
812.10	31694.36
812.28	31761.95
812.46	31628.83
812.64	31528.48
812.82	31196.71
813.00	31262.24
813.18	31231.52
813.36	31415.84
813.53	30834.22
813.71	31063.59
813.89	30850.60
814.07	31063.59
814.25	30590.51
814.43	30727.72
814.61	30223.92
814.79	30752.30
814.97	30369.33
815.15	30594.61
815.33	30422.58
815.50	30316.08
815.68	30809.64
815.86	30772.78
816.04	30187.06
816.22	30488.11
816.40	30125.62
816.58	30146.10
816.76	29775.42
816.94	29904.44
817.11	30185.01
817.29	30127.67
817.47	29890.10
817.65	30205.49
817.83	29767.23
818.01	29851.19
818.19	29699.64
818.37	29720.12
818.54	29546.05
818.72	29388.35
818.90	29810.23
819.08	29351.49
819.26	29482.56
819.44	29386.30
819.62	29380.16
819.80	29288.00
819.97	29689.40
820.15	29681.21
820.33	29414.98
820.51	29154.88
820.69	28982.85
820.87	29144.64
821.05	29376.06
821.22	29138.50
821.40	29177.41
821.58	29109.83
821.76	29093.44
821.94	28663.37
822.12	28603.98
822.29	28900.94
822.47	28730.95
822.65	28759.63
822.83	28884.55
823.01	28589.64
823.19	28696.14
823.36	28241.49
823.54	28411.47
823.72	28335.70
823.90	28124.75
824.08	27926.10
824.25	28356.18
824.43	28091.99
824.61	27752.02
824.79	28341.84
824.97	28239.44
825.15	28214.87
825.32	28038.74
825.50	27952.73
825.68	27874.90
825.86	28405.33
826.04	28456.53
826.21	28018.26
826.39	27819.61
826.57	27852.38
826.75	27653.72
826.93	27768.41
827.10	27459.16
827.28	27846.23
827.46	27903.57
827.64	27674.20
827.81	27569.76
827.99	27729.50
828.17	27414.11
828.35	27661.91
828.53	27686.49
828.70	27326.05
828.88	27567.71
829.06	27260.51
829.24	27641.43
829.41	27068.00
829.59	27383.39
829.77	27434.59
829.95	27076.19
830.12	27160.16
830.30	27125.35
830.48	27190.88
830.66	27231.84
830.84	27129.44
831.01	27035.24
831.19	27111.01
831.37	26941.03
831.55	27092.58
831.72	26627.69
831.90	27162.21
832.08	27018.85
832.25	26756.71
832.43	26793.58
832.61	26672.74
832.79	26535.53
832.96	26957.41
833.14	26777.19
833.32	26809.96
833.50	26719.85
833.67	26893.93
833.85	26535.53
834.03	26080.88
834.20	26515.05
834.38	26736.23
834.56	26381.93
834.74	26404.46
834.91	26263.15
835.09	26828.39
835.27	26160.75
835.44	26138.23
835.62	25685.62
835.80	26207.86
835.98	26318.45
836.15	26164.85
836.33	26383.98
836.51	26224.24
836.68	26283.63
836.86	26181.23
837.04	25964.15
837.21	25869.94
837.39	26060.40
837.57	26074.74
837.75	25962.10
837.92	25669.24
838.10	25466.49
838.28	25560.70
838.45	25644.66
838.63	25740.92
838.81	25788.02
838.98	25673.34
839.16	25718.39
839.34	25476.73
839.51	25638.52
839.69	25642.62
839.87	25517.69
840.04	25400.96
840.22	25828.98
840.40	25446.01
840.57	25366.14
840.75	25466.49
840.93	24989.31
841.10	25251.45
841.28	25466.49
841.46	25308.80
841.63	25374.33
841.81	25190.02
841.98	25075.33
842.16	25357.95
842.34	25218.69
842.51	24950.40
842.69	25570.94
842.87	24948.36
843.04	25357.95
843.22	25190.02
843.40	24837.76
843.57	24919.68
843.75	25081.47
843.92	25132.67
844.10	24993.41
844.28	24919.68
844.45	25087.62
844.63	24876.68
844.81	24829.57
844.98	24999.55
845.16	24563.34
845.33	24768.13
845.51	24696.46
845.69	24768.13
845.86	24458.89
846.04	24870.53
846.21	24374.92
846.39	24712.84
846.57	24360.59
846.74	24456.84
846.92	24082.06
847.09	24604.30
847.27	24192.65
847.45	24510.09
847.62	24368.78
847.80	24452.75
847.97	24223.37
848.15	24161.94
848.32	24174.22
848.50	24530.57
848.68	23996.05
848.85	24155.79
849.03	23887.51
849.20	23946.90
849.38	23893.65
849.56	24174.22
849.73	23860.88
849.91	23895.70
850.08	23977.62
850.26	24102.54
850.43	23551.64
850.61	23877.27
850.78	23799.44
850.96	24110.74
851.14	23916.18
851.31	23819.92
851.49	23533.21
851.66	23869.08
851.84	23508.63
852.01	23674.52
852.19	24020.63
852.36	23516.83
852.54	23719.57
852.71	23690.90
852.89	23367.32
853.07	23563.93
853.24	23355.04
853.42	23056.03
853.59	23361.18
853.77	23393.95
853.94	23219.87
854.12	23555.74
854.29	23131.81
854.47	23303.84
854.64	23336.60
854.82	23072.42
854.99	23608.98
855.17	23187.10
855.34	23000.74
855.52	23238.30
855.69	23187.10
855.87	22980.26
856.04	22757.03
856.22	23240.35
856.39	22869.67
856.57	23254.69
856.74	22738.60
856.92	22986.40
857.09	22851.24
857.27	22838.95
857.44	22908.58
857.62	22795.94
857.79	22679.21
857.97	22634.15
858.14	22826.66
858.32	22568.62
858.49	22507.18
858.67	22707.88
858.84	22595.24
859.02	22677.16
859.19	22546.09
859.37	22599.34
859.54	22306.48
859.72	22990.50
859.89	22386.35
860.06	22531.75
860.24	22224.56
860.41	22439.59
860.59	22214.32
860.76	22374.06
860.94	22093.49
861.11	22167.21
861.29	22077.10
861.46	22382.25
861.64	21780.15
861.81	22292.14
861.98	21999.28
862.16	22136.49
862.33	21866.16
862.51	21753.52
862.68	21974.70
862.86	21573.30
863.03	22007.47
863.21	21941.94
863.38	21771.96
863.55	21401.27
863.73	21687.99
863.90	21790.39
864.08	21561.02
864.25	21515.96
864.43	21565.11
864.60	21610.17
864.77	21309.11
864.95	21305.02
865.12	21143.23
865.30	21583.54
865.47	21450.42
865.64	21425.85
865.82	21362.36
865.99	21434.04
866.17	21266.11
866.34	21606.07
866.51	20981.44
866.69	21343.93
866.86	21057.21
867.04	21198.52
867.21	21141.18
867.38	21016.26
867.56	20797.12
867.73	20993.73
867.91	20707.01
868.08	20905.66
868.25	20790.98
868.43	20819.65
868.60	20848.32
868.78	20661.96
868.95	21089.98
869.12	20793.03
869.30	20647.62
869.47	20969.15
869.64	20422.34
869.82	20762.31
869.99	20465.35
870.16	20444.87
870.34	20090.57
870.51	20453.06
870.69	20367.05
870.86	20291.27
871.03	20336.33
871.21	20098.77
871.38	20055.76
871.55	19953.36
871.73	20311.75
871.90	20012.75
872.07	19842.77
872.25	19713.75
872.42	19982.03
872.59	19965.65
872.77	19650.26
872.94	19910.35
873.11	19685.08
873.29	19691.22
873.46	19578.58
873.63	19345.11
873.81	19703.51
873.98	19519.19
874.15	19467.99
874.33	19396.31
874.50	19250.91
874.67	19396.31
874.85	19242.71
875.02	19500.76
875.19	19447.51
875.37	19226.33
875.54	19179.23
875.71	19267.29
875.88	19218.14
876.06	19222.23
876.23	18902.75
876.40	18941.66
876.58	18978.53
876.75	18753.25
876.92	18853.60
877.10	18935.52
877.27	18663.14
877.44	18534.12
877.61	18568.93
877.79	18648.80
877.96	18603.75
878.13	18394.86
878.31	18388.71
878.48	18456.29
878.65	18286.31
878.82	18314.98
879.00	18431.72
879.17	18319.08
879.34	18487.01
879.51	18194.15
879.69	18231.02
879.86	18196.20
880.03	18147.05
880.21	18239.21
880.38	17925.87
880.55	18081.52
880.72	17909.49
880.90	18132.72
881.07	17798.90
881.24	17864.43
881.41	17891.06
881.59	17854.19
881.76	17970.93
881.93	17768.18
882.10	17633.01
882.28	17485.56
882.45	17831.66
882.62	17450.74
882.79	17925.87
882.96	17364.73
883.14	17731.31
883.31	17577.72
883.48	17544.95
883.65	17491.70
883.83	17757.94
884.00	17569.52
884.17	17483.51
884.34	17346.30
884.51	17671.92
884.69	17495.80
884.86	17395.45
885.03	17528.56
885.20	17276.66
885.38	17417.97
885.55	17331.96
885.72	17237.75
885.89	17309.43
886.06	17198.84
886.24	17225.47
886.41	16994.04
886.58	17409.78
886.75	17293.05
886.92	16989.95
887.10	17184.51
887.27	16746.24
887.44	17043.20
887.61	16992.00
887.78	16899.84
887.95	17061.63
888.13	16776.96
888.30	16740.10
888.47	16768.77
888.64	16895.74
888.81	16631.55
888.99	16604.93
889.16	16514.82
889.33	16455.43
889.50	16633.60
889.67	16604.93
889.84	16475.91
890.01	16307.98
890.19	16248.58
890.36	16561.92
890.53	16240.39
890.70	16305.93
890.87	16215.82
891.04	16297.74
891.22	16269.06
891.39	16158.47
891.56	15920.91
891.73	16015.12
891.90	15976.20
892.07	15976.20
892.24	15873.81
892.42	15791.89
892.59	16064.27
892.76	15812.37
892.93	15804.17
893.10	16019.21
893.27	15787.79
893.44	15894.29
893.61	15806.22
893.79	15933.20
893.96	16011.02
894.13	15953.68
894.30	15879.95
894.47	15689.49
894.64	15912.72
894.81	15677.20
894.98	15843.09
895.15	15849.23
895.33	15703.82
895.50	15755.02
895.67	15947.53
895.84	15773.46
896.01	15560.47
896.18	15298.33
896.35	15724.30
896.52	15415.06
896.69	15712.02
896.86	15603.47
897.04	15476.50
897.21	15644.43
897.38	15652.63
897.55	15582.99
897.72	15554.32
897.89	15597.33
898.06	15544.08
898.23	15365.91
898.40	15732.50
898.57	15402.77
898.74	15515.41
898.91	15595.28
899.08	15574.80
899.26	15415.06
899.43	15396.63
899.60	15570.71
899.77	15390.49
899.94	15380.25
900.11	15249.18
900.28	15398.68
900.45	15341.33
900.62	15382.29
900.79	15413.01
900.96	15329.05
901.13	15417.11
901.30	15283.99
901.47	15152.92
901.64	15517.46
901.81	15259.42
901.98	15208.22
902.15	15456.02
902.32	15208.22
902.49	15478.55
902.66	15327.00
902.83	15275.80
903.01	15316.76
903.18	15234.84
903.35	15126.30
903.52	15136.54
903.69	15339.29
903.86	15462.16
904.03	15079.19
904.20	15181.59
904.37	15146.78
904.54	15240.98
904.71	15124.25
904.88	15273.75
905.05	14976.80
905.22	15171.35
905.39	14905.12
905.56	15247.13
905.73	15052.57
905.90	14997.28
906.07	15019.80
906.24	15171.35
906.41	15038.23
906.58	15286.04
906.75	15044.38
906.92	14976.80
907.09	15025.95
907.26	14980.89
907.43	14825.25
907.60	15011.61
907.77	15017.75
907.93	15068.95
908.10	15064.86
908.27	14890.78
908.44	14864.16
908.61	14847.77
908.78	14941.98
908.95	15208.22
909.12	14794.53
909.29	14960.41
909.46	14972.70
909.63	15122.20
909.80	14944.03
909.97	14972.70
910.14	14878.49
910.31	15036.19
910.48	14798.62
910.65	14898.97
910.82	14575.39
910.99	14661.41
911.16	14903.07
911.33	14649.12
911.50	14712.61
911.66	14671.65
911.83	14526.24
912.00	14673.70
912.17	14452.52
912.34	14538.53
912.51	14341.93
912.68	14370.60
912.85	14454.56
913.02	14616.35
913.19	14331.69
913.36	14491.43
913.53	14579.49
913.70	14266.15
913.86	14563.11
914.03	14366.50
914.20	14280.49
914.37	14337.83
914.54	14196.52
914.71	14425.89
914.88	14378.79
915.05	14227.24
915.22	14079.79
915.39	14047.02
915.55	13936.43
915.72	14053.16
915.89	14065.45
916.06	13838.12
916.23	13997.87
916.40	13758.25
916.57	13678.38
916.74	13766.45
916.91	13879.08
917.07	13815.60
917.24	13879.08
917.41	13764.40
917.58	13610.80
917.75	13586.22
917.92	13543.22
918.09	13451.06
918.26	13604.66
918.42	13635.38
918.59	13672.24
918.76	13295.41
918.93	13285.17
919.10	13147.96
919.27	13209.40
919.44	13260.60
919.60	13451.06
919.77	13123.38
919.94	13213.49
920.11	13096.76
920.28	13063.99
920.45	12951.35
920.61	12865.34
920.78	12814.14
920.95	13055.80
921.12	12973.88
921.29	12814.14
921.46	12848.96
921.62	12564.29
921.79	12848.96
921.96	12633.92
922.13	12504.90
922.30	12492.61
922.47	12449.60
922.63	12285.76
922.80	12498.75
922.97	12255.04
923.14	12089.16
923.31	12058.44
923.47	12177.22
923.64	12353.35
923.81	11953.99
923.98	12005.19
924.15	11837.26
924.32	11949.90
924.48	12025.67
924.65	12158.79
924.82	11933.51
924.99	11886.41
925.15	11669.33
925.32	11779.92
925.49	11448.15
925.66	11736.91
925.83	11431.76
925.99	11392.85
926.16	11622.22
926.33	11722.57
926.50	11423.57
926.67	11677.52
926.83	11339.60
927.00	11509.58
927.17	11251.54
927.34	11224.92
927.50	11255.64
927.67	11222.87
927.84	11302.74
928.01	10944.34
928.17	11044.70
928.34	10956.63
928.51	10936.15
928.68	10829.66
928.84	10923.87
929.01	10508.13
929.18	10624.86
929.35	10774.36
929.51	10737.50
929.68	10469.22
929.85	10450.78
930.02	10485.60
930.18	10428.26
930.35	10534.75
930.52	10409.83
930.69	10473.31
930.85	10379.11
931.02	10227.56
931.19	10194.79
931.36	10047.33
931.52	10100.58
931.69	10186.60
931.86	10033.00
932.02	9946.98
932.19	10012.52
932.36	10014.57
932.53	9973.61
932.69	9762.67
932.86	9920.36
933.03	9940.84
933.19	9729.90
933.36	9463.66
933.53	9633.64
933.70	9549.68
933.86	9588.59
934.03	9641.84
934.20	9486.19
934.36	9512.81
934.53	9054.07
934.70	8955.77
934.86	9211.76
935.03	9045.88
935.20	8875.90
935.36	8810.36
935.53	8812.41
935.70	8949.62
935.86	8865.66
936.03	8642.43
936.20	8632.19
936.36	8529.79
936.53	8494.97
936.70	8265.60
936.86	8400.77
937.03	8329.09
937.20	8212.35
937.36	8327.04
937.53	7919.50
937.70	7843.72
937.86	7810.95
938.03	7778.19
938.20	7913.35
938.36	7647.12
938.53	7573.39
938.70	7341.97
938.86	7419.79
939.03	7171.99
939.20	7303.06
939.36	7096.21
939.53	7163.79
939.70	7276.43
939.86	6905.75
940.03	6778.78
940.19	6817.69
940.36	6811.54
940.53	6598.56
940.69	6565.79
940.86	6545.31
941.03	6522.78
941.19	6324.13
941.36	6612.89
941.52	6252.45
941.69	6317.98
941.86	6119.33
942.02	6088.61
942.19	6094.76
942.35	6148.00
942.52	5986.21
942.69	5838.76
942.85	5814.18
943.02	5955.49
943.18	5814.18
943.35	5793.70
943.52	5656.49
943.68	5771.18
943.85	5722.02
944.01	5537.71
944.18	5578.67
944.35	5560.24
944.51	5472.17
944.68	5451.69
944.84	5472.17
945.01	5396.40
945.17	5435.31
945.34	5298.10
945.51	5470.12
945.67	5308.34
945.84	5353.39
946.00	5316.53
946.17	5332.91
946.33	5267.38
946.50	5539.76
946.67	5289.90
946.83	5228.46
947.00	5255.09
947.16	5337.01
947.33	5265.33
947.49	5220.27
947.66	5234.61
947.82	5134.26
947.99	5253.04
948.16	5236.66
948.32	5224.37
948.49	5175.22
948.65	5355.44
948.82	5259.18
948.98	5201.84
949.15	5214.13
949.31	5367.73
949.48	5375.92
949.64	5300.14
949.81	5273.52
949.97	5207.98
950.14	5324.72
950.30	5248.94
950.47	5334.96
950.63	5230.51
950.80	5285.81
950.96	5341.10
951.13	5318.57
951.30	5365.68
951.46	5416.88
951.63	5410.73
951.79	5285.81
951.96	5390.25
952.12	5318.57
952.29	5384.11
952.45	5304.24
952.62	5400.49
952.78	5425.07
952.94	5453.74
953.11	5255.09
953.27	5146.55
953.44	5429.17
953.60	5435.31
953.77	5334.96
953.93	5365.68
954.10	5353.39
954.26	5437.36
954.43	5285.81
954.59	5341.10
954.76	5545.90
954.92	5490.60
955.09	5445.55
955.25	5457.84
955.42	5451.69
955.58	5504.94
955.75	5457.84
955.91	5509.04
956.07	5490.60
956.24	5533.61
956.40	5478.32
956.57	5574.57
956.73	5425.07
956.90	5494.70
957.06	5451.69
957.23	5351.34
957.39	5500.84
957.56	5459.88
957.72	5349.29
957.88	5384.11
958.05	5476.27
958.21	5636.01
958.38	5521.32
958.54	5554.09
958.71	5631.91
958.87	5472.17
959.03	5398.45
959.20	5498.80
959.36	5330.86
959.53	5459.88
959.69	5429.17
959.85	5556.14
960.02	5441.45
960.18	5459.88
960.35	5437.36
960.51	5582.76
960.68	5410.73
960.84	5382.06
961.00	5457.84
961.17	5361.58
961.33	5529.52
961.50	5480.36
961.66	5543.85
961.82	5441.45
961.99	5478.32
962.15	5488.56
962.31	5337.01
962.48	5441.45
962.64	5535.66
962.81	5607.34
962.97	5427.12
963.13	5398.45
963.30	5306.29
963.46	5357.49
963.62	5402.54
963.79	5500.84
963.95	5480.36
964.12	5435.31
964.28	5504.94
964.44	5330.86
964.61	5427.12
964.77	5296.05
964.93	5388.21
965.10	5308.34
965.26	5369.77
965.42	5283.76
965.59	5216.18
965.75	5429.17
965.92	5273.52
966.08	5369.77
966.24	5289.90
966.41	5513.13
966.57	5267.38
966.73	5349.29
966.90	5265.33
967.06	5380.01
967.22	5253.04
967.39	5263.28
967.55	5199.79
967.71	5242.80
967.88	5255.09
968.04	5181.36
968.20	5375.92
968.37	5220.27
968.53	5259.18
968.69	5283.76
968.85	5197.74
969.02	5240.75
969.18	5236.66
969.34	5212.08
969.51	5154.74
969.67	5189.55
969.83	4939.70
970.00	5197.74
970.16	5259.18
970.32	5124.02
970.48	5248.94
970.65	5130.16
970.81	5023.67
970.97	5148.59
971.14	5042.10
971.30	5109.68
971.46	5003.19
971.63	5035.96
971.79	5222.32
971.95	4997.04
972.11	4964.28
972.28	5021.62
972.44	5054.39
972.60	4876.21
972.76	5001.14
972.93	4835.25
973.09	5009.33
973.25	5074.87
973.42	4937.65
973.58	5050.29
973.74	4925.36
973.90	5025.72
974.07	4874.17
974.23	4995.00
974.39	4908.98
974.55	4876.21
974.72	4911.03
974.88	4792.25
975.04	4855.73
975.20	4773.82
975.37	4863.93
975.53	4843.45
975.69	5005.24
975.85	4837.30
976.01	4763.58
976.18	4720.57
976.34	4788.15
976.50	4902.84
976.66	4898.74
976.83	4761.53
976.99	4732.86
977.15	4743.10
977.31	4573.11
977.47	4843.45
977.64	4786.10
977.80	4761.53
977.96	4786.10
978.12	4636.60
978.29	4603.83
978.45	4632.51
978.61	4577.21
978.77	4755.38
978.93	4423.61
979.10	4566.97
979.26	4597.69
979.42	4562.87
979.58	4466.62
979.74	4569.02
979.91	4601.79
980.07	4509.63
980.23	4507.58
980.39	4394.94
980.55	4581.31
980.71	4480.96
980.88	4399.04
981.04	4474.81
981.20	4515.77
981.36	4485.05
981.52	4536.25
981.68	4401.08
981.85	4575.16
982.01	4411.32
982.17	4370.37
982.33	4300.73
982.49	4415.42
982.65	4427.71
982.82	4419.52
982.98	4411.32
983.14	4308.93
983.30	4413.37
983.46	4380.61
983.62	4343.74
983.79	4378.56
983.95	4378.56
984.11	4089.79
984.27	4313.02
984.43	4296.64
984.59	4368.32
984.75	4349.89
984.91	4145.09
985.08	4253.63
985.24	4227.01
985.40	4159.42
985.56	4095.94
985.72	4181.95
985.88	4214.72
986.04	4227.01
986.20	4095.94
986.37	4259.78
986.53	4022.21
986.69	4083.65
986.85	4087.75
987.01	4116.42
987.17	4194.24
987.33	3907.52
987.49	4050.88
987.65	4085.70
987.82	4171.71
987.98	4075.46
988.14	4034.50
988.30	4120.51
988.46	4014.02
988.62	3991.49
988.78	4030.40
988.94	4022.21
989.10	3878.85
989.26	3715.02
989.42	3895.24
989.59	3760.07
989.75	3897.28
989.91	3944.39
990.07	3854.28
990.23	3770.31
990.39	3928.00
990.55	3921.86
990.71	3778.50
990.87	3786.69
991.03	3846.09
991.19	3694.54
991.35	3891.14
991.51	3780.55
991.67	3880.90
991.83	3885.00
992.00	3749.83
992.16	3815.37
992.32	3758.02
992.48	3901.38
992.64	3770.31
992.80	3708.87
992.96	3592.14
993.12	3846.09
993.28	3723.21
993.44	3749.83
993.60	3633.10
993.76	3669.96
993.92	3796.93
994.08	3708.87
994.24	3704.78
994.40	3676.10
994.56	3659.72
994.72	3542.99
994.88	3635.14
995.04	3600.33
995.20	3583.95
995.36	3538.89
995.52	3672.01
995.68	3612.62
995.84	3542.99
996.00	3647.43
996.16	3596.23
996.32	3524.55
996.48	3588.04
996.64	3682.25
996.80	3551.18
996.96	3536.84
997.12	3633.10
997.28	3440.59
997.44	3542.99
997.60	3454.92
997.76	3506.12
997.92	3508.17
998.08	3444.68
998.24	3389.39
998.40	3420.11
998.56	3483.59
998.72	3411.92
998.88	3370.96
999.04	3354.57
999.20	3477.45
999.36	3448.78
999.52	3497.93
999.68	3358.67
999.84	3348.43
1000.00	3370.96
1000.16	3432.40
1000.32	3315.66
1000.48	3438.54
1000.64	3196.88
1000.80	3317.71
1000.95	3141.58
1001.11	3286.99
1001.27	3203.02
1001.43	3215.31
1001.59	3110.86
1001.75	3180.50
1001.91	3280.85
1002.07	3276.75
1002.23	3215.31
1002.39	3184.59
1002.55	3170.26
1002.71	3209.17
1002.87	3149.78
1003.03	3104.72
1003.19	3110.86
1003.34	3194.83
1003.50	3166.16
1003.66	3213.26
1003.82	3129.30
1003.98	3131.34
1004.14	3117.01
1004.30	3051.47
1004.46	3184.59
1004.62	3088.34
1004.78	3030.99
1004.94	3024.85
1005.09	3147.73
1005.25	3053.52
1005.41	2983.89
1005.57	3041.23
1005.73	3114.96
1005.89	2973.65
1006.05	3160.02
1006.21	3002.32
1006.37	2949.08
1006.52	2908.12
1006.68	3039.19
1006.84	3076.05
1007.00	2889.68
1007.16	3024.85
1007.32	2856.92
1007.48	2918.36
1007.64	3028.95
1007.79	3043.28
1007.95	2879.44
1008.11	2981.84
1008.27	2930.64
1008.43	2967.51
1008.59	2858.96
1008.75	2861.01
1008.91	2987.99
1009.06	2877.40
1009.22	2906.07
1009.38	2863.06
1009.54	2830.29
1009.70	2807.77
1009.86	2768.85
1010.01	2910.16
1010.17	2691.03
1010.33	2793.43
1010.49	2809.81
1010.65	2881.49
1010.81	2731.99
1010.96	2844.63
1011.12	2715.61
1011.28	2660.31
1011.44	2809.81
1011.60	2758.61
1011.76	2693.08
1011.91	2779.09
1012.07	2654.17
1012.23	2650.07
1012.39	2643.93
1012.55	2711.51
1012.71	2633.69
1012.86	2686.94
1013.02	2652.12
1013.18	2678.74
1013.34	2627.54
1013.50	2740.18
1013.65	2686.94
1013.81	2609.11
1013.97	2654.17
1014.13	2635.74
1014.29	2586.58
1014.44	2625.50
1014.60	2637.78
1014.76	2582.49
1014.92	2588.63
1015.07	2631.64
1015.23	2658.26
1015.39	2592.73
1015.55	2566.10
1015.71	2596.82
1015.86	2568.15
1016.02	2484.19
1016.18	2457.56
1016.34	2566.10
1016.49	2500.57
1016.65	2564.06
1016.81	2574.30
1016.97	2631.64
1017.12	2562.01
1017.28	2519.00
1017.44	2377.69
1017.60	2490.33
1017.75	2527.19
1017.91	2471.90
1018.07	2451.42
1018.23	2473.95
1018.38	2432.99
1018.54	2473.95
1018.70	2475.99
1018.86	2385.88
1019.01	2379.74
1019.17	2437.08
1019.33	2502.62
1019.49	2416.60
1019.64	2426.84
1019.80	2363.36
1019.96	2459.61
1020.12	2453.47
1020.27	2375.64
1020.43	2453.47
1020.59	2435.03
1020.74	2416.60
1020.90	2402.27
1021.06	2320.35
1021.22	2383.84
1021.37	2359.26
1021.53	2383.84
1021.69	2342.88
1021.84	2279.39
1022.00	2338.78
1022.16	2336.73
1022.31	2256.86
1022.47	2338.78
1022.63	2385.88
1022.79	2246.62
1022.94	2363.36
1023.10	2373.60
1023.26	2260.96
1023.41	2275.29
1023.57	2252.77
1023.73	2373.60
1023.88	2195.42
1024.04	2138.08
1024.20	2269.15
1024.35	2303.96
1024.51	2344.92
1024.67	2277.34
1024.82	2320.35
1024.98	2232.29
1025.14	2170.85
1025.29	2193.37
1025.45	2281.44
1025.61	2287.58
1025.76	2293.72
1025.92	2260.96
1026.08	2217.95
1026.23	2281.44
1026.39	2181.09
1026.55	2158.56
1026.70	2156.51
1026.86	2152.42
1027.02	2269.15
1027.17	2205.66
1027.33	2236.38
1027.48	2176.99
1027.64	2133.98
1027.80	2111.46
1027.95	2242.53
1028.11	2119.65
1028.27	2140.13
1028.42	2076.64
1028.58	2142.18
1028.73	2031.58
1028.89	2086.88
1029.05	2201.57
1029.20	2195.42
>>>>>End Processed Spectral Data<<<<<
