SpectraSuite Data File
++++++++++++++++++++++++++++++++++++
Date: Fri Jun 02 14:44:39 CEST 2017
User: INFO_000
Dark Spectrum Present: No
Reference Spectrum Present: No
Number of Sampled Component Spectra: 1
Spectrometers: USB4H00879
Integration Time (usec): 80000 (USB4H00879)
Spectra Averaged: 1 (USB4H00879)
Boxcar Smoothing: 0 (USB4H00879)
Correct for Electrical Dark: No (USB4H00879)
Strobe/Lamp Enabled: No (USB4H00879)
Correct for Detector Non-linearity: No (USB4H00879)
Correct for Stray Light: No (USB4H00879)
Number of Pixels in Processed Spectrum: 3648
>>>>>Begin Processed Spectral Data<<<<<
345.13	1304.56
345.34	1304.56
345.56	1304.56
345.78	1253.36
345.99	1275.88
346.21	1726.44
346.42	1787.88
346.64	1640.42
346.86	1834.98
347.07	1654.76
347.29	1644.52
347.50	1626.09
347.72	1662.95
347.94	1791.97
348.15	1564.65
348.37	1595.37
348.59	1757.16
348.80	1599.46
349.02	1757.16
349.23	1894.37
349.45	1773.54
349.67	1884.13
349.88	1810.40
350.10	1984.48
350.31	1912.80
350.53	1775.59
350.75	1875.94
350.96	1767.40
351.18	1867.75
351.39	1865.70
351.61	1812.45
351.82	1877.99
352.04	1859.56
352.26	1845.22
352.47	1929.19
352.69	1918.95
352.90	1757.16
353.12	1759.21
353.34	1896.42
353.55	2019.30
353.77	1902.56
353.98	1806.31
354.20	1888.23
354.41	1908.71
354.63	1884.13
354.85	1988.58
355.06	1935.33
355.28	1732.58
355.49	1890.28
355.71	1912.80
355.92	1877.99
356.14	1925.09
356.35	1943.52
356.57	1841.12
356.79	1959.91
357.00	1882.08
357.22	1929.19
357.43	1818.60
357.65	1957.86
357.86	1873.89
358.08	1900.52
358.29	1908.71
358.51	1959.91
358.72	1888.23
358.94	1912.80
359.16	1882.08
359.37	1984.48
359.59	1916.90
359.80	1996.77
360.02	1843.17
360.23	2011.11
360.45	1961.95
360.66	1947.62
360.88	1855.46
361.09	1974.24
361.31	2002.91
361.52	1902.56
361.74	1943.52
361.95	1961.95
362.17	2043.87
362.38	2095.07
362.60	2052.06
362.81	1976.29
363.03	1920.99
363.24	1980.39
363.46	2148.32
363.67	2009.06
363.89	1943.52
364.10	2027.49
364.32	1931.23
364.53	2076.64
364.75	1894.37
364.96	2027.49
365.18	2009.06
365.39	1972.19
365.61	2027.49
365.82	2158.56
366.04	1945.57
366.25	1941.47
366.47	1994.72
366.68	2019.30
366.90	1976.29
367.11	2084.83
367.33	2023.39
367.54	2017.25
367.76	1994.72
367.97	2101.22
368.19	2131.94
368.40	2082.78
368.62	2033.63
368.83	2023.39
369.05	2031.58
369.26	1945.57
369.48	2017.25
369.69	1961.95
369.91	2088.93
370.12	2043.87
370.33	2166.75
370.55	1949.67
370.76	2043.87
370.98	2109.41
371.19	2119.65
371.41	2002.91
371.62	2070.50
371.84	1986.53
372.05	2164.70
372.27	1982.43
372.48	1980.39
372.69	2078.69
372.91	2164.70
373.12	2164.70
373.34	2093.02
373.55	2109.41
373.77	2199.52
373.98	2097.12
374.20	2179.04
374.41	2086.88
374.62	2078.69
374.84	2115.55
375.05	2138.08
375.27	2166.75
375.48	2136.03
375.70	2250.72
375.91	2246.62
376.12	2207.71
376.34	2133.98
376.55	2166.75
376.77	2193.37
376.98	2088.93
377.19	2158.56
377.41	2133.98
377.62	2181.09
377.84	2293.72
378.05	2365.40
378.27	2111.46
378.48	2285.53
378.69	2383.84
378.91	2273.25
379.12	2150.37
379.34	2209.76
379.55	2226.14
379.76	2244.57
379.98	2215.90
380.19	2240.48
380.41	2295.77
380.62	2314.20
380.83	2299.87
381.05	2191.33
381.26	2490.33
381.47	2258.91
381.69	2320.35
381.90	2355.16
382.12	2285.53
382.33	2306.01
382.54	2289.63
382.76	2418.65
382.97	2283.49
383.19	2191.33
383.40	2330.59
383.61	2273.25
383.83	2265.05
384.04	2420.70
384.25	2363.36
384.47	2389.98
384.68	2349.02
384.89	2269.15
385.11	2371.55
385.32	2430.94
385.54	2279.39
385.75	2377.69
385.96	2349.02
386.18	2381.79
386.39	2420.70
386.60	2441.18
386.82	2535.39
387.03	2486.23
387.24	2463.71
387.46	2482.14
387.67	2459.61
387.88	2551.77
388.10	2471.90
388.31	2582.49
388.52	2555.86
388.74	2426.84
388.95	2598.87
389.16	2514.91
389.38	2531.29
389.59	2650.07
389.80	2557.91
390.02	2543.58
390.23	2600.92
390.44	2605.02
390.66	2549.72
390.87	2543.58
391.08	2533.34
391.30	2686.94
391.51	2672.60
391.72	2723.80
391.94	2688.98
392.15	2652.12
392.36	2607.06
392.58	2609.11
392.79	2660.31
393.00	2729.94
393.22	2715.61
393.43	2668.50
393.64	2846.68
393.85	2711.51
394.07	2635.74
394.28	2688.98
394.49	2756.57
394.71	2738.13
394.92	2891.73
395.13	2734.04
395.35	2795.48
395.56	2871.25
395.77	2658.26
395.98	2826.20
396.20	2934.74
396.41	2842.58
396.62	2897.88
396.84	2846.68
397.05	2766.81
397.26	2830.29
397.47	2908.12
397.69	2877.40
397.90	3006.42
398.11	2846.68
398.32	2762.71
398.54	2897.88
398.75	3008.47
398.96	2920.40
399.18	3016.66
399.39	3080.14
399.60	2906.07
399.81	2990.03
400.03	2895.83
400.24	3321.81
400.45	2967.51
400.66	3123.15
400.88	2906.07
401.09	3213.26
401.30	3061.71
401.51	3133.39
401.73	3178.45
401.94	3219.41
402.15	3129.30
402.36	3069.91
402.58	3010.51
402.79	3155.92
403.00	3135.44
403.21	3182.54
403.43	3276.75
403.64	3250.13
403.85	3223.50
404.06	3250.13
404.27	3174.35
404.49	3291.09
404.70	3282.89
404.91	3239.89
405.12	3385.29
405.34	3246.03
405.55	3426.25
405.76	3180.50
405.97	3258.32
406.19	3497.93
406.40	3227.60
406.61	3289.04
406.82	3465.16
407.03	3358.67
407.25	3405.77
407.46	3477.45
407.67	3448.78
407.88	3504.07
408.09	3426.25
408.31	3426.25
408.52	3471.31
408.73	3411.92
408.94	3362.76
409.15	3477.45
409.37	3553.23
409.58	3444.68
409.79	3502.03
410.00	3524.55
410.21	3446.73
410.43	3506.12
410.64	3532.75
410.85	3524.55
411.06	3588.04
411.27	3665.86
411.48	3596.23
411.70	3624.90
411.91	3579.85
412.12	3645.38
412.33	3629.00
412.54	3616.71
412.76	3887.04
412.97	3641.29
413.18	3579.85
413.39	3633.10
413.60	3631.05
413.81	3706.82
414.03	3626.95
414.24	3667.91
414.45	3858.37
414.66	3516.36
414.87	3792.84
415.08	3782.60
415.30	3729.35
415.51	3776.45
415.72	3653.58
415.93	3760.07
416.14	3735.50
416.35	3819.46
416.56	3811.27
416.78	3753.93
416.99	3819.46
417.20	3903.43
417.41	3993.54
417.62	3958.72
417.83	3958.72
418.04	3977.16
418.26	3885.00
418.47	3966.92
418.68	3942.34
418.89	4009.92
419.10	4128.70
419.31	3956.68
419.52	4030.40
419.73	4001.73
419.95	4020.16
420.16	3983.30
420.37	4030.40
420.58	4016.07
420.79	3923.91
421.00	3975.11
421.21	4087.75
421.42	4050.88
421.63	4005.83
421.85	4102.08
422.06	4241.34
422.27	4159.42
422.48	4151.23
422.69	4089.79
422.90	4147.14
423.11	4272.06
423.32	4202.43
423.53	4507.58
423.75	4364.22
423.96	4507.58
424.17	4386.75
424.38	4452.28
424.59	4366.27
424.80	4450.24
425.01	4429.76
425.22	4411.32
425.43	4419.52
425.64	4605.88
425.85	4722.62
426.06	4587.45
426.28	4558.78
426.49	4464.57
426.70	4648.89
426.91	4566.97
427.12	4689.85
427.33	4706.23
427.54	4601.79
427.75	4820.92
427.96	4964.28
428.17	4685.75
428.38	4747.19
428.59	4757.43
428.80	4788.15
429.01	4878.26
429.23	4829.11
429.44	4894.65
429.65	5175.22
429.86	5083.06
430.07	4951.99
430.28	4825.01
430.49	4947.89
430.70	5246.90
430.91	5003.19
431.12	4986.80
431.33	5119.92
431.54	5126.07
431.75	5222.32
431.96	5220.27
432.17	5054.39
432.38	5248.94
432.59	5412.78
432.80	5459.88
433.01	5406.64
433.22	5506.99
433.43	5392.30
433.64	5283.76
433.85	5394.35
434.06	5455.79
434.27	5445.55
434.49	5543.85
434.70	5611.43
434.91	5492.65
435.12	5558.19
435.33	5590.95
435.54	5420.97
435.75	5449.64
435.96	5648.30
436.17	5498.80
436.38	5668.78
436.59	5691.31
436.80	5736.36
437.01	5752.74
437.22	5818.28
437.43	5746.60
437.64	5517.23
437.85	5947.30
438.06	5789.61
438.27	5621.67
438.48	5773.22
438.69	6027.17
438.90	5881.77
439.11	5857.19
439.32	5949.35
439.53	5869.48
439.74	5961.64
439.95	5996.45
440.16	6055.84
440.37	6043.56
440.57	5945.25
440.78	6264.74
440.99	6082.47
441.20	6148.00
441.41	6006.69
441.62	6080.42
441.83	5898.15
442.04	6172.58
442.25	6250.40
442.46	6242.21
442.67	6266.78
442.88	6694.81
443.09	6086.56
443.30	5965.73
443.51	6309.79
443.72	6424.48
443.93	6207.39
444.14	6649.75
444.35	6219.68
444.56	6447.01
444.77	6330.27
444.98	6238.11
445.19	6430.62
445.40	6360.99
445.61	6469.53
445.81	6545.31
446.02	6619.04
446.23	6485.92
446.44	6238.11
446.65	6424.48
446.86	6440.86
447.07	6703.00
447.28	6739.87
447.49	6639.51
447.70	6569.88
447.91	6686.62
448.12	6643.61
448.33	6791.06
448.54	6703.00
448.74	6672.28
448.95	6848.41
449.16	6739.87
449.37	6879.13
449.58	6879.13
449.79	6981.53
450.00	6668.19
450.21	6909.85
450.42	7061.40
450.63	7085.97
450.84	6895.51
451.05	7038.87
451.25	6983.57
451.46	7008.15
451.67	7094.16
451.88	7118.74
452.09	7149.46
452.30	6987.67
452.51	7057.30
452.72	7128.98
452.93	7528.33
453.13	7178.13
453.34	7180.18
453.55	7196.56
453.76	7128.98
453.97	7620.49
454.18	7303.06
454.39	7444.37
454.60	7520.14
454.81	7489.42
455.01	7610.25
455.22	7286.67
455.43	7561.10
455.64	7683.98
455.85	7985.03
456.06	7976.84
456.27	7729.03
456.48	7636.88
456.68	7878.54
456.89	8013.70
457.10	7868.30
457.31	7958.41
457.52	7874.44
457.73	7925.64
457.94	8365.95
458.14	7946.12
458.35	8277.89
458.56	8195.97
458.77	8238.98
458.98	8163.20
459.19	8169.35
459.39	8331.14
459.60	8568.70
459.81	8374.14
460.02	8740.73
460.23	8535.93
460.44	8638.33
460.65	8757.11
460.85	8695.68
461.06	8759.16
461.27	8570.75
461.48	8904.57
461.69	9023.35
461.89	8652.67
462.10	8789.88
462.31	8785.79
462.52	8949.62
462.73	8867.70
462.94	9375.60
463.14	9170.80
463.35	9088.89
463.56	9598.83
463.77	9426.80
463.98	9355.12
464.18	9518.96
464.39	9600.88
464.60	9795.43
464.81	9740.14
465.02	9654.12
465.23	9807.72
465.43	9717.61
465.64	9985.90
465.85	9930.60
466.06	10051.43
466.27	10383.20
466.47	10121.06
466.68	10297.19
466.89	9973.61
467.10	10180.45
467.30	10143.59
467.51	10372.96
467.72	10639.20
467.93	10323.81
468.14	10706.78
468.34	10753.88
468.55	10653.53
468.76	10725.21
468.97	10575.71
469.17	11110.23
469.38	11194.20
469.59	11161.43
469.80	11046.74
470.01	11274.07
470.21	11192.15
470.42	11321.17
470.63	11579.22
470.84	11417.43
471.04	11458.39
471.25	11624.27
471.46	11620.17
471.67	11855.69
471.87	11757.39
472.08	11806.54
472.29	11847.50
472.50	11798.35
472.70	11800.40
472.91	11984.71
473.12	12265.28
473.33	12459.84
473.53	12431.17
473.74	12519.23
473.95	12715.84
474.16	12595.01
474.36	12617.54
474.57	12566.34
474.78	12965.69
474.99	12654.40
475.19	12934.97
475.40	13078.33
475.61	13242.17
475.81	13289.27
476.02	13526.83
476.23	13338.42
476.44	13532.98
476.64	13616.94
476.85	13883.18
477.06	13666.10
477.27	14094.12
477.47	14108.46
477.68	13967.15
477.89	14176.04
478.09	14253.86
478.30	14098.22
478.51	14278.44
478.71	14503.71
478.92	14567.20
479.13	14491.43
479.34	14638.88
479.54	14878.49
479.75	14516.00
479.96	15132.44
480.16	15138.58
480.37	14704.42
480.58	15238.94
480.78	15505.17
480.99	15283.99
481.20	15572.75
481.41	15466.26
481.61	15384.34
481.82	15531.80
482.03	15746.83
482.23	15818.51
482.44	15765.26
482.65	15996.68
482.85	16008.97
483.06	16144.14
483.27	16228.10
483.47	16119.56
483.68	16381.70
483.89	16523.01
484.09	16635.65
484.30	16482.05
484.51	16615.17
484.71	16879.36
484.92	16504.58
485.13	17000.19
485.33	16989.95
485.54	17096.44
485.75	17237.75
485.95	17360.63
486.16	17299.19
486.37	17542.90
486.57	17358.58
486.78	17403.64
486.98	17475.32
487.19	17723.12
487.40	17854.19
487.60	17956.59
487.81	18132.72
488.02	17721.07
488.22	18054.89
488.43	18228.97
488.64	18171.63
488.84	18167.53
489.05	18747.11
489.25	18493.16
489.46	18728.67
489.67	18673.38
489.87	18839.26
490.08	18831.07
490.29	19031.77
490.49	19289.82
490.70	19310.30
490.90	19070.68
491.11	19326.68
491.32	19435.22
491.52	19486.42
491.73	19658.45
491.94	19814.10
492.14	19603.16
492.35	19986.13
492.55	19848.91
492.76	20162.25
492.97	20426.44
493.17	20223.69
493.38	20207.31
493.58	20453.06
493.79	20686.53
494.00	20500.17
494.20	20610.76
494.41	20674.24
494.61	20868.80
494.82	20584.13
495.02	20774.60
495.23	21190.33
495.44	21266.11
495.64	21780.15
495.85	21173.95
496.05	21454.52
496.26	21556.92
496.47	21845.68
496.67	21462.71
496.88	22005.42
497.08	21708.47
497.29	22064.82
497.49	21927.60
497.70	21847.73
497.91	22367.91
498.11	22308.52
498.32	22511.27
498.52	22453.93
498.73	23133.86
498.93	22550.18
499.14	22949.54
499.34	22961.83
499.55	22818.47
499.76	23101.09
499.96	23230.11
500.17	23191.20
500.37	23447.19
500.58	23230.11
500.78	23355.04
500.99	23535.26
501.19	23695.00
501.40	23817.88
501.60	23586.46
501.81	23910.04
502.02	23959.19
502.22	23836.31
502.43	24233.61
502.63	24374.92
502.84	24432.27
503.04	24219.28
503.25	24557.19
503.45	24374.92
503.66	24827.53
503.86	24616.58
504.07	25009.79
504.27	24700.55
504.48	24897.16
504.68	25349.76
504.89	25327.23
505.09	25192.06
505.30	25063.04
505.50	25319.04
505.71	25595.51
505.91	25630.33
506.12	25554.55
506.32	25591.42
506.53	25691.77
506.73	25896.56
506.94	26076.79
507.14	25982.58
507.35	26009.20
507.55	26369.65
507.76	26154.61
507.96	26093.17
508.17	26302.06
508.37	26459.76
508.58	26504.81
508.78	26560.11
508.99	26713.70
509.19	26650.22
509.40	26875.49
509.60	26885.73
509.81	26883.69
510.01	26965.60
510.22	26908.26
510.42	26918.50
510.63	27053.67
510.83	26994.28
511.04	26977.89
511.24	27557.47
511.44	27379.29
511.65	27557.47
511.85	27246.18
512.06	27534.94
512.26	27457.12
512.47	27721.30
512.67	27829.85
512.88	27993.68
513.08	27690.59
513.29	28051.03
513.49	27944.53
513.69	27876.95
513.90	28132.95
514.10	27876.95
514.31	28214.87
514.51	27653.72
514.72	27987.54
514.92	28057.17
515.13	28212.82
515.33	28276.30
515.53	28542.54
515.74	28776.01
515.94	28823.11
516.15	28638.80
516.35	28708.43
516.56	28679.75
516.76	28558.92
516.96	28868.17
517.17	28941.89
517.37	28849.74
517.58	28710.47
517.78	29122.12
517.99	29072.96
518.19	29230.66
518.39	29130.31
518.60	29451.84
518.80	29124.16
519.01	29398.59
519.21	29560.38
519.41	29318.72
519.62	29398.59
519.82	29615.68
520.03	29828.66
520.23	29695.55
520.43	29285.95
520.64	29832.76
520.84	29863.48
521.05	29849.14
521.25	29828.66
521.45	30058.04
521.66	30166.58
521.86	30158.39
522.07	29675.07
522.27	29779.51
522.47	30398.00
522.68	30279.22
522.88	30283.31
523.08	30987.82
523.29	30555.69
523.49	30334.51
523.70	30633.52
523.90	31043.11
524.10	30701.10
524.31	30950.95
524.51	30809.64
524.71	31229.48
524.92	30975.53
525.12	31217.19
525.33	31161.89
525.53	31174.18
525.73	31546.91
525.94	31374.88
526.14	31481.38
526.34	31120.93
526.55	31424.03
526.75	31385.12
526.95	31841.82
527.16	31856.15
527.36	31622.69
527.56	31921.69
527.77	31964.70
527.97	31796.76
528.17	31909.40
528.38	32407.06
528.58	31944.22
528.78	32144.92
528.99	32155.16
529.19	32613.90
529.39	32050.71
529.60	32435.73
529.80	32423.44
530.00	32452.11
530.21	32704.01
530.41	32802.32
530.61	32697.87
530.82	32751.12
531.02	33154.57
531.22	33189.38
531.43	32867.85
531.63	33277.44
531.83	33175.05
532.04	33709.57
532.24	33375.75
532.44	33928.70
532.64	33781.24
532.85	33801.72
533.05	33918.46
533.25	34106.87
533.46	33963.51
533.66	33732.09
533.86	33768.96
534.07	34207.22
534.27	34336.24
534.47	34536.94
534.67	34498.03
534.88	34309.62
535.08	34498.03
535.28	34727.41
535.49	35057.13
535.69	34893.29
535.89	34801.13
536.09	34711.02
536.30	35257.83
536.50	35462.63
536.70	35757.53
536.91	35479.01
537.11	35452.39
537.31	35667.42
537.51	35415.52
537.72	35890.65
537.92	35847.64
538.12	36224.47
538.32	35767.77
538.53	36363.73
538.73	36070.87
538.93	36107.74
539.13	36562.39
539.34	36259.29
539.54	36197.85
539.74	36693.46
539.94	36519.38
540.15	36599.25
540.35	36961.74
540.55	37180.87
540.75	37029.32
540.96	36939.21
541.16	36941.26
541.36	37215.69
541.56	37221.83
541.77	37602.75
541.97	37285.32
542.17	37516.74
542.37	37537.22
542.58	37631.43
542.78	37563.84
542.98	37807.55
543.18	37828.03
543.38	38696.37
543.59	38235.58
543.79	38206.90
543.99	38309.30
544.19	38323.64
544.40	38618.55
544.60	39034.28
544.80	38372.79
545.00	38655.41
545.20	39366.06
545.41	38651.31
545.61	39017.90
545.81	39284.14
546.01	38931.89
546.21	38874.54
546.42	39523.75
546.62	39327.14
546.82	39261.61
547.02	39830.94
547.22	39910.82
547.43	39665.06
547.63	39933.34
547.83	39679.39
548.03	40009.12
548.23	40324.50
548.44	39998.88
548.64	40256.92
548.84	40474.01
549.04	39988.64
549.24	41039.25
549.45	41080.21
549.65	40555.93
549.85	40787.35
550.05	40580.50
550.25	40926.61
550.45	41487.75
550.66	40744.34
550.86	41289.10
551.06	41006.48
551.26	41164.17
551.46	41364.87
551.66	41407.88
551.87	41221.52
552.07	41725.32
552.27	41756.03
552.47	41760.13
552.67	41977.22
552.87	41543.05
553.07	41821.57
553.28	42229.12
553.48	41633.16
553.68	42202.49
553.88	42466.68
554.08	42155.39
554.28	42179.96
554.48	42493.30
554.69	42796.40
554.89	42448.25
555.09	42554.74
555.29	42378.62
555.49	42884.47
555.69	42804.59
555.89	42915.19
556.10	43378.03
556.30	42767.73
556.50	43076.97
556.70	42935.66
556.90	43011.44
557.10	43330.92
557.30	43257.20
557.50	43347.31
557.70	43019.63
557.91	43259.24
558.11	43345.26
558.31	43314.54
558.51	43369.83
558.71	43347.31
558.91	43527.53
559.11	43830.63
559.31	43550.06
559.51	43482.47
559.72	43871.59
559.92	43935.07
560.12	43763.04
560.32	44297.56
560.52	43695.46
560.72	44307.80
560.92	44184.93
561.12	44086.62
561.32	44434.78
561.52	43933.03
561.72	44221.79
561.93	44424.54
562.13	44287.32
562.33	44117.34
562.53	45106.51
562.73	44399.96
562.93	44567.90
563.13	45145.42
563.33	44684.63
563.53	44504.41
563.73	44627.29
563.93	44789.08
564.13	45004.11
564.33	44879.19
564.53	44959.06
564.74	44619.10
564.94	44791.12
565.14	45217.10
565.34	44995.92
565.54	45079.89
565.74	44827.99
565.94	45348.17
566.14	44905.81
566.34	44696.92
566.54	45405.52
566.74	44741.97
566.94	45507.91
567.14	45317.45
567.34	45262.16
567.54	45393.23
567.74	45077.84
567.94	45137.23
568.14	45634.89
568.34	45491.53
568.54	45385.04
568.74	45278.54
568.94	45567.30
569.14	45444.43
569.34	45430.09
569.54	45290.83
569.75	45362.51
569.95	45626.70
570.15	45833.54
570.35	45700.42
570.55	45700.42
570.75	45630.79
570.95	45589.83
571.15	45974.85
571.35	45933.89
571.55	45837.64
571.75	45757.77
571.95	45929.80
572.15	45835.59
572.35	45907.27
572.55	45808.96
572.75	46243.13
572.95	45905.22
573.15	45944.13
573.35	45825.35
573.55	45626.70
573.75	45874.50
573.95	46112.06
574.15	46071.10
574.35	46396.73
574.55	45796.68
574.75	46128.45
574.95	46296.38
575.15	45913.41
575.34	45737.29
575.54	46097.73
575.74	46304.57
575.94	46257.47
576.14	46267.71
576.34	46400.83
576.54	46511.42
576.74	45839.68
576.94	46189.89
577.14	46355.77
577.34	46955.83
577.54	45960.51
577.74	46073.15
577.94	46505.27
578.14	46822.71
578.34	46611.77
578.54	46052.67
578.74	46595.38
578.94	46570.81
579.14	46269.76
579.34	46716.22
579.54	46832.95
579.74	47033.65
579.94	46562.62
580.13	47037.75
580.33	46998.83
580.53	46710.07
580.73	46949.68
580.93	46835.00
581.13	46902.58
581.33	47416.62
581.53	46822.71
581.73	47357.23
581.93	47455.53
582.13	47351.09
582.33	47381.80
582.53	47213.87
582.73	47068.47
582.92	47107.38
583.12	47523.11
583.32	47109.43
583.52	46912.82
583.72	47301.93
583.92	47238.45
584.12	47904.04
584.32	47912.23
584.52	47480.11
584.72	47598.89
584.92	47867.17
585.11	48299.30
585.31	47508.78
585.51	48063.78
585.71	47820.07
585.91	47865.13
586.11	47981.86
586.31	47482.16
586.51	47789.35
586.71	47873.32
586.91	48391.45
587.10	48031.01
587.30	48178.46
587.50	48280.86
587.70	48551.20
587.90	48215.33
588.10	48385.31
588.30	48325.92
588.50	48268.58
588.69	48432.41
588.89	48080.16
589.09	48657.69
589.29	48084.26
589.49	48766.23
589.69	48434.46
589.89	48674.07
590.08	48940.31
590.28	48661.79
590.48	48766.23
590.68	48528.67
590.88	48872.73
591.08	48858.39
591.28	48672.03
591.47	49380.62
591.67	49169.68
591.87	49128.72
592.07	48772.38
592.27	49292.56
592.47	49063.19
592.67	49485.07
592.86	49394.96
593.06	49642.76
593.26	49325.33
593.46	49489.16
593.66	49536.27
593.86	49870.09
594.05	49083.67
594.25	49394.96
594.45	49310.99
594.65	49386.77
594.85	49448.21
595.05	50052.36
595.24	49771.78
595.44	50136.32
595.64	50119.94
595.84	50042.12
596.04	49839.37
596.23	50244.87
596.43	50451.71
596.63	49915.14
596.83	50648.32
597.03	50840.82
597.22	50963.70
597.42	50808.06
597.62	50740.47
597.82	50679.03
598.02	50461.95
598.21	50584.83
598.41	50855.16
598.61	51238.13
598.81	50881.78
599.01	50955.51
599.20	50658.56
599.40	50742.52
599.60	51533.04
599.80	51338.48
600.00	51084.53
600.19	51291.38
600.39	51066.10
600.59	51770.60
600.79	51709.16
600.98	51676.40
601.18	51868.90
601.38	51877.10
601.58	52143.33
601.78	51856.62
601.97	52028.65
602.17	52108.52
602.37	52473.06
602.57	52655.32
602.76	52552.93
602.96	52260.07
603.16	52610.27
603.36	52276.45
603.55	52905.18
603.75	52823.26
603.95	53130.45
604.15	53077.21
604.34	53275.86
604.54	53212.37
604.74	53462.22
604.94	53257.43
605.13	53155.03
605.33	53351.63
605.53	53220.56
605.73	53933.26
605.92	53427.41
606.12	53863.63
606.32	54033.61
606.52	53638.35
606.71	53337.30
606.91	54269.12
607.11	53744.84
607.30	54158.53
607.50	54297.80
607.70	54250.69
607.90	53949.64
608.09	54160.58
608.29	54117.57
608.49	54033.61
608.68	54377.67
608.88	54213.83
609.08	54916.28
609.28	54652.09
609.47	54639.81
609.67	55217.33
609.87	54699.20
610.06	54858.94
610.26	55135.41
610.46	55153.85
610.66	54856.89
610.85	54840.51
611.05	54865.08
611.25	55071.93
611.44	54801.60
611.64	54834.36
611.84	54850.75
612.03	55360.69
612.23	55131.32
612.43	55594.16
612.62	55436.47
612.82	55758.00
613.02	55469.23
613.21	55522.48
613.41	55495.86
613.61	55925.93
613.80	55059.64
614.00	55731.37
614.20	55628.98
614.39	55596.21
614.59	55852.20
614.79	55450.80
614.98	55184.57
615.18	55465.14
615.38	55989.42
615.57	56022.19
615.77	56151.21
615.97	56018.09
616.16	55942.31
616.36	56173.73
616.56	56378.53
616.75	55708.85
616.95	56118.44
617.15	56171.69
617.34	56093.86
617.54	56208.55
617.74	56931.48
617.93	56024.23
618.13	55850.16
618.32	56366.24
618.52	55846.06
618.72	56161.45
618.91	56374.44
619.11	55682.22
619.31	56153.26
619.50	56196.26
619.70	55547.06
619.90	56497.31
620.09	56302.76
620.29	56190.12
620.48	56521.89
620.68	56372.39
620.88	55973.03
621.07	56181.93
621.27	56245.41
621.46	55987.37
621.66	56030.38
621.86	56054.95
622.05	55913.64
622.25	56335.52
622.44	56317.09
622.64	56046.76
622.84	55985.32
623.03	56077.48
623.23	55788.72
623.42	56038.57
623.62	55868.59
623.82	56276.13
624.01	55995.56
624.21	56468.64
624.40	55968.94
624.60	55801.00
624.80	56126.63
624.99	55923.88
625.19	55788.72
625.38	56530.08
625.58	56466.59
625.77	56478.88
625.97	56315.04
626.17	55852.20
626.36	56325.28
626.56	56329.38
626.75	55616.69
626.95	56890.52
627.14	55891.12
627.34	56333.48
627.54	55567.54
627.73	56208.55
627.93	56612.00
628.12	56161.45
628.32	56452.26
628.51	56022.19
628.71	56237.22
628.90	55866.54
629.10	56251.56
629.30	56173.73
629.49	56294.56
629.69	55960.75
629.88	56054.95
630.08	56030.38
630.27	56087.72
630.47	56038.57
630.66	55678.13
630.86	56054.95
631.05	55665.84
631.25	56276.13
631.44	56046.76
631.64	56005.80
631.84	56007.85
632.03	56272.04
632.23	56229.03
632.42	56284.33
632.62	55989.42
632.81	56026.28
633.01	55889.07
633.20	56151.21
633.40	56009.90
633.59	56034.47
633.79	55678.13
633.98	56028.33
634.18	56155.30
634.37	56499.36
634.57	55432.37
634.76	56157.35
634.96	55960.75
635.15	56075.43
635.35	55760.05
635.54	55950.51
635.74	56239.27
635.93	55366.84
636.13	55907.50
636.32	55751.85
636.52	55682.22
636.71	55878.83
636.91	55753.90
637.10	55962.79
637.30	56302.76
637.49	55641.26
637.69	55655.60
637.88	56192.17
638.08	55530.67
638.27	56108.20
638.46	55733.42
638.66	55874.73
638.85	56073.38
639.05	55690.41
639.24	56085.67
639.44	55377.08
639.63	55694.51
639.83	55745.71
640.02	55792.81
640.22	55823.53
640.41	55792.81
640.61	55336.12
640.80	55667.89
640.99	55196.85
641.19	55860.40
641.38	55252.15
641.58	55366.84
641.77	55481.52
641.97	55061.69
642.16	55026.87
642.36	55491.76
642.55	55903.40
642.74	55231.67
642.94	56110.25
643.13	55551.15
643.33	55737.52
643.52	55743.66
643.72	55506.10
643.91	55370.93
644.10	55592.11
644.30	55821.48
644.49	55628.98
644.69	55569.58
644.88	55205.05
645.08	55262.39
645.27	55475.38
645.46	54824.12
645.66	55485.62
645.85	55393.46
646.05	55342.26
646.24	55059.64
646.43	55680.17
646.63	56087.72
646.82	55391.41
647.02	55712.94
647.21	55530.67
647.40	55442.61
647.60	55684.27
647.79	55735.47
647.99	55659.69
648.18	55516.34
648.37	55827.63
648.57	55428.27
648.76	55671.98
648.96	55536.82
649.15	55530.67
649.34	55760.05
649.54	55577.78
649.73	54955.19
649.92	55616.69
650.12	55362.74
650.31	55499.95
650.51	55309.49
650.70	55452.85
650.89	55450.80
651.09	56233.13
651.28	55622.83
651.47	55248.05
651.67	55223.48
651.86	55821.48
652.06	55262.39
652.25	55702.70
652.44	55790.76
652.64	55342.26
652.83	55381.17
653.02	55198.90
653.22	55213.24
653.41	55432.37
653.60	55223.48
653.80	55590.06
653.99	55968.94
654.18	54959.29
654.38	55211.19
654.57	55456.95
654.76	55753.90
654.96	55489.71
655.15	55545.01
655.34	55434.42
655.54	54947.00
655.73	55606.45
655.92	55422.13
656.12	55403.70
656.31	55702.70
656.50	55295.16
656.70	55233.72
656.89	55420.08
657.08	55911.59
657.28	55610.54
657.47	55622.83
657.66	55809.20
657.86	55518.38
658.05	55393.46
658.24	55698.61
658.43	55340.21
658.63	55401.65
658.82	55837.87
659.01	55581.87
659.21	55334.07
659.40	55596.21
659.59	55618.74
659.79	55620.78
659.98	55868.59
660.17	56009.90
660.36	55827.63
660.56	55714.99
660.75	55925.93
660.94	55502.00
661.14	56057.00
661.33	55600.30
661.52	55401.65
661.71	55866.54
661.91	55792.81
662.10	55452.85
662.29	56296.61
662.49	55925.93
662.68	55850.16
662.87	55522.48
663.06	56259.75
663.26	55559.34
663.45	56288.42
663.64	55723.18
663.83	56194.21
664.03	56007.85
664.22	55565.49
664.41	55950.51
664.60	55770.28
664.80	55882.92
664.99	55596.21
665.18	55743.66
665.37	55588.02
665.57	56024.23
665.76	55960.75
665.95	55899.31
666.14	55671.98
666.34	55540.91
666.53	56347.81
666.72	56063.14
666.91	56038.57
667.11	55536.82
667.30	56546.47
667.49	56204.45
667.68	56214.69
667.87	55708.85
668.07	56140.97
668.26	56087.72
668.45	56097.96
668.64	56022.19
668.84	56599.71
669.03	56489.12
669.22	56497.31
669.41	56196.26
669.60	55803.05
669.80	56059.05
669.99	56302.76
670.18	56259.75
670.37	56319.14
670.57	56759.45
670.76	56439.97
670.95	56609.95
671.14	56157.35
671.33	56450.21
671.53	56605.86
671.72	56704.16
671.91	56265.89
672.10	56075.43
672.29	56702.11
672.48	56390.82
672.68	57013.40
672.87	56345.76
673.06	56046.76
673.25	56384.68
673.44	56177.83
673.64	56384.68
673.83	56394.92
674.02	56622.24
674.21	56057.00
674.40	56661.15
674.59	56214.69
674.79	56497.31
674.98	56296.61
675.17	56556.70
675.36	56591.52
675.55	56829.08
675.74	56417.44
675.94	56568.99
676.13	56685.73
676.32	56626.34
676.51	57291.93
676.70	56796.32
676.89	56493.22
677.08	57029.79
677.28	56702.11
677.47	57169.05
677.66	56964.25
677.85	56534.18
678.04	56937.63
678.23	57025.69
678.42	57242.77
678.62	56892.57
678.81	57152.66
679.00	57093.27
679.19	57392.28
679.38	56818.84
679.57	57091.22
679.76	56712.35
679.96	57216.15
680.15	57212.06
680.34	57099.42
680.53	56714.40
680.72	57205.91
680.91	57496.72
681.10	56900.76
681.29	57631.89
681.48	57132.18
681.68	56759.45
681.87	56691.87
682.06	56894.62
682.25	56327.33
682.44	57015.45
682.63	56911.00
682.82	56558.75
683.01	56751.26
683.20	56612.00
683.39	57070.75
683.59	56810.65
683.78	57111.70
683.97	57017.50
684.16	56923.29
684.35	56925.34
684.54	57214.10
684.73	56560.80
684.92	56612.00
685.11	56685.73
685.30	56800.41
685.49	57074.84
685.69	57109.66
685.88	56931.48
686.07	56896.67
686.26	56990.87
686.45	57062.55
686.64	56943.77
686.83	57054.36
687.02	56999.07
687.21	57183.38
687.40	57123.99
687.59	56827.04
687.78	56958.11
687.97	56872.09
688.16	57138.33
688.35	56925.34
688.54	56736.93
688.74	56911.00
688.93	56552.61
689.12	57195.67
689.31	56677.54
689.50	57074.84
689.69	56167.59
689.88	56941.72
690.07	56972.44
690.26	56915.10
690.45	56784.03
690.64	56579.23
690.83	56702.11
691.02	56675.49
691.21	56652.96
691.40	56458.40
691.59	57128.09
691.78	56308.90
691.97	56999.07
692.16	56609.95
692.35	56855.71
692.54	56556.70
692.73	56415.40
692.92	56724.64
693.11	56511.65
693.30	56628.38
693.49	56622.24
693.68	56673.44
693.87	56284.33
694.06	56669.34
694.25	56278.18
694.44	56120.49
694.63	56759.45
694.82	56534.18
695.01	56169.64
695.20	55983.27
695.39	56134.82
695.58	56206.50
695.77	55729.33
695.96	56169.64
696.15	56308.90
696.34	56202.41
696.53	56411.30
696.72	56341.67
696.91	56247.46
697.10	56439.97
697.29	55856.30
697.48	56050.86
697.67	56089.77
697.86	55942.31
698.05	55669.93
698.24	56126.63
698.43	55528.62
698.62	56333.48
698.81	55448.75
699.00	56063.14
699.19	55260.34
699.38	55542.96
699.57	55563.44
699.76	56300.71
699.95	55532.72
700.14	55444.66
700.32	55499.95
700.51	55635.12
700.70	55792.81
700.89	55934.12
701.08	55293.11
701.27	55379.12
701.46	56057.00
701.65	55071.93
701.84	55151.80
702.03	55651.50
702.22	55256.24
702.41	55125.17
702.60	55293.11
702.79	55039.16
702.98	55059.64
703.17	55262.39
703.35	54803.64
703.54	54914.23
703.73	55317.68
703.92	55088.31
704.11	54961.34
704.30	55162.04
704.49	55000.25
704.68	54981.82
704.87	54469.82
705.06	54889.66
705.25	54965.43
705.43	55049.40
705.62	54975.67
705.81	54428.87
706.00	54578.37
706.19	54596.80
706.38	54377.67
706.57	54865.08
706.76	53900.49
706.95	54244.55
707.14	54269.12
707.32	54187.21
707.51	53861.58
707.70	54394.05
707.89	54275.27
708.08	53834.95
708.27	54334.66
708.46	54512.83
708.65	54027.46
708.84	54252.74
709.02	54019.27
709.21	54144.20
709.40	53927.11
709.59	54023.37
709.78	53615.82
709.97	54174.92
710.16	53355.73
710.34	53507.28
710.53	53843.15
710.72	53429.46
710.91	53683.40
711.10	53515.47
711.29	53830.86
711.48	53488.85
711.66	53312.72
711.85	52927.70
712.04	53454.03
712.23	53523.66
712.42	53468.37
712.61	53089.49
712.80	52679.90
712.98	53198.04
713.17	52532.45
713.36	52407.52
713.55	52911.32
713.74	52958.42
713.93	52806.87
714.11	53220.56
714.30	52124.90
714.49	52534.49
714.68	52647.13
714.87	52974.81
715.06	52477.15
715.24	52487.39
715.43	52716.76
715.62	51821.80
715.81	52223.20
716.00	52477.15
716.18	51778.79
716.37	51786.99
716.56	51481.84
716.75	52393.18
716.94	51918.06
717.12	51961.06
717.31	52413.66
717.50	51625.20
717.69	52012.26
717.88	51748.07
718.06	52065.51
718.25	51721.45
718.44	51139.83
718.63	51459.31
718.82	51131.64
719.00	51277.04
719.19	51557.61
719.38	51313.90
719.57	51062.00
719.76	50423.04
719.94	50228.48
720.13	50912.50
720.32	50873.59
720.51	51033.33
720.69	50658.56
720.88	50156.80
721.07	50595.07
721.26	50220.29
721.44	50412.80
721.63	50230.53
721.82	50328.83
722.01	49814.79
722.20	50435.33
722.38	49624.33
722.57	49601.80
722.76	50087.17
722.95	49714.44
723.13	49804.55
723.32	49485.07
723.51	49018.13
723.70	49403.15
723.88	49648.91
724.07	49325.33
724.26	49050.90
724.44	48948.50
724.63	49415.44
724.82	49249.55
725.01	49272.08
725.19	49151.25
725.38	48874.77
725.57	48874.77
725.76	48950.55
725.94	48665.88
726.13	48913.69
726.32	48780.57
726.51	48420.13
726.69	49022.23
726.88	49102.10
727.07	48579.87
727.25	48366.88
727.44	48510.24
727.63	48991.51
727.82	48477.47
728.00	48399.65
728.19	48446.75
728.38	48624.92
728.56	48053.54
728.75	48497.95
728.94	48313.63
729.12	48223.52
729.31	48149.79
729.50	48106.79
729.69	48153.89
729.87	48180.51
730.06	47934.76
730.25	48211.23
730.43	48522.52
730.62	47881.51
730.81	48215.33
730.99	48178.46
731.18	47539.50
731.37	48069.92
731.55	48317.73
731.74	48092.45
731.93	48393.50
732.11	48051.49
732.30	47871.27
732.49	47875.37
732.67	48110.88
732.86	47707.43
733.05	47539.50
733.23	47426.86
733.42	48010.53
733.61	47488.30
733.79	47521.07
733.98	47322.41
734.17	47725.86
734.35	47668.52
734.54	47856.93
734.73	47545.64
734.91	47555.88
735.10	47142.19
735.29	47856.93
735.47	46824.76
735.66	47514.92
735.84	47461.68
736.03	47207.73
736.22	47412.52
736.40	47072.56
736.59	47342.89
736.78	47543.59
736.96	47306.03
737.15	47211.82
737.33	47007.03
737.52	47103.28
737.71	47301.93
737.89	46839.09
738.08	47179.06
738.27	46927.16
738.45	47035.70
738.64	47138.10
738.82	46984.50
739.01	46787.89
739.20	46679.35
739.38	46859.57
739.57	46708.02
739.75	46685.50
739.94	46298.43
740.13	46429.50
740.31	46357.82
740.50	46345.53
740.68	46404.92
740.87	46816.57
741.06	46710.07
741.24	46329.15
741.43	46163.26
741.61	46245.18
741.80	46374.20
741.99	46120.26
742.17	46320.96
742.36	46243.13
742.54	46159.17
742.73	46767.41
742.91	46351.68
743.10	46361.92
743.29	46241.09
743.47	46370.11
743.66	46357.82
743.84	45976.90
744.03	46495.03
744.21	45888.84
744.40	46386.49
744.59	46277.95
744.77	45833.54
744.96	46271.81
745.14	45870.40
745.33	45854.02
745.51	45489.48
745.70	46077.25
745.88	45919.56
746.07	45591.88
746.26	45512.01
746.44	45819.20
746.63	45854.02
746.81	45716.81
747.00	45276.49
747.18	45786.44
747.37	45251.92
747.55	45634.89
747.74	45745.48
747.92	44801.36
748.11	45106.51
748.29	45045.07
748.48	45587.78
748.66	45032.78
748.85	45618.50
749.03	45282.64
749.22	45100.37
749.41	45464.91
749.59	45323.60
749.78	44868.95
749.96	44645.72
750.15	45159.76
750.33	45210.96
750.52	45184.33
750.70	44832.08
750.89	44991.83
751.07	44774.74
751.26	44801.36
751.44	44942.67
751.63	45147.47
751.81	44621.14
752.00	44664.15
752.18	45006.16
752.37	44590.42
752.55	44299.61
752.74	44596.57
752.92	44873.04
753.10	44537.18
753.29	44649.81
753.47	44633.43
753.66	43887.97
753.84	44664.15
754.03	44227.93
754.21	43994.46
754.40	44615.00
754.58	44479.83
754.77	44004.70
754.95	43973.98
755.14	44594.52
755.32	44483.93
755.51	44418.39
755.69	43863.39
755.88	44229.98
756.06	44563.80
756.24	43996.51
756.43	43986.27
756.61	43787.62
756.80	44000.61
756.98	43580.78
757.17	43978.08
757.35	43832.68
757.54	43652.45
757.72	44103.01
757.90	44010.85
758.09	43572.58
758.27	43984.22
758.46	43644.26
758.64	43556.20
758.83	43648.36
759.01	44027.23
759.19	43554.15
759.38	43750.76
759.56	44027.23
759.75	43660.65
759.93	43806.05
760.12	43548.01
760.30	43259.24
760.48	43685.22
760.67	43267.44
760.85	43332.97
761.04	43464.04
761.22	43652.45
761.40	43822.44
761.59	43335.02
761.77	43218.28
761.96	43689.32
762.14	43457.90
762.32	42810.74
762.51	43181.42
762.69	43298.16
762.88	43382.12
763.06	43162.99
763.24	43349.35
763.43	43928.93
763.61	43001.20
763.80	43343.21
763.98	43046.26
764.16	42913.14
764.35	42392.95
764.53	42554.74
764.72	42757.49
764.90	42710.39
765.08	42644.85
765.27	42411.38
765.45	42417.53
765.63	42532.22
765.82	42599.80
766.00	42689.91
766.18	42837.36
766.37	42646.90
766.55	42302.84
766.74	42593.65
766.92	42212.73
767.10	42237.31
767.29	42220.92
767.47	42290.55
767.65	42573.17
767.84	42251.64
768.02	42175.87
768.20	41856.39
768.39	42415.48
768.57	42280.31
768.75	42237.31
768.94	41866.63
769.12	42294.65
769.30	42018.17
769.49	41889.15
769.67	41723.27
769.85	42087.81
770.04	41670.02
770.22	41663.88
770.40	41731.46
770.59	42079.61
770.77	41885.06
770.95	41440.65
771.14	41801.09
771.32	41305.48
771.50	41366.92
771.69	41559.43
771.87	41735.56
772.05	41774.47
772.24	41432.46
772.42	41303.43
772.60	41379.21
772.78	41278.86
772.97	41469.32
773.15	41600.39
773.33	41532.81
773.52	41223.56
773.70	41418.12
773.88	41643.40
774.07	41233.80
774.25	41186.70
774.43	41905.54
774.61	41223.56
774.80	41344.39
774.98	41215.37
775.16	41227.66
775.34	41186.70
775.53	41266.57
775.71	41399.69
775.89	41676.16
776.08	41536.90
776.26	41940.35
776.44	41710.98
776.62	41618.82
776.81	41436.55
776.99	41657.73
777.17	41397.64
777.35	41672.07
777.54	41788.80
777.72	41577.86
777.90	41631.11
778.08	42108.29
778.27	41991.55
778.45	42370.43
778.63	41926.02
778.81	41760.13
779.00	42438.01
779.18	42268.03
779.36	42360.19
779.54	41727.36
779.73	41993.60
779.91	42239.36
780.09	42560.89
780.27	42481.02
780.46	42321.27
780.64	42272.12
780.82	42132.86
781.00	41934.21
781.19	42349.95
781.37	42452.34
781.55	42874.23
781.73	43056.50
781.91	42579.32
782.10	42407.29
782.28	42796.40
782.46	42984.82
782.64	42618.23
782.82	42282.36
783.01	42915.19
783.19	42808.69
783.37	43146.61
783.55	43038.06
783.74	43369.83
783.92	42401.14
784.10	42993.01
784.28	42794.36
784.46	42333.56
784.64	42726.77
784.83	43126.13
785.01	43072.88
785.19	42593.65
785.37	43054.45
785.55	43115.89
785.74	42804.59
785.92	42620.28
786.10	42911.09
786.28	42571.13
786.46	42708.34
786.64	42327.42
786.83	42462.58
787.01	42906.99
787.19	42546.55
787.37	42616.18
787.55	42759.54
787.74	42450.30
787.92	42804.59
788.10	42333.56
788.28	42462.58
788.46	42278.27
788.64	42243.45
788.82	42642.81
789.01	42356.09
789.19	42278.27
789.37	42009.98
789.55	42214.78
789.73	41964.93
789.91	41842.05
790.09	41747.84
790.28	41633.16
790.46	41350.54
790.64	41764.23
790.82	41993.60
791.00	41571.72
791.18	41303.43
791.36	41448.84
791.55	41477.51
791.73	41256.33
791.91	41336.20
792.09	41354.63
792.27	41225.61
792.45	41512.33
792.63	41059.73
792.81	41047.44
793.00	40910.22
793.18	40582.55
793.36	41080.21
793.54	40674.71
793.72	40592.79
793.90	40304.02
794.08	40406.42
794.26	40609.17
794.44	39976.35
794.62	40121.76
794.81	40336.79
794.99	39849.38
795.17	40506.77
795.35	39859.62
795.53	39763.36
795.71	39951.77
795.89	39972.25
796.07	39640.48
796.25	39404.97
796.43	39353.77
796.61	39128.49
796.80	39273.90
796.98	39110.06
797.16	39312.81
797.34	39269.80
797.52	38993.32
797.70	39198.12
797.88	38890.93
798.06	38323.64
798.24	38270.39
798.42	38516.15
798.60	38530.48
798.78	38249.91
798.96	38415.80
799.14	38198.71
799.32	38553.01
799.51	37776.83
799.69	38612.40
799.87	37895.61
800.05	37504.45
800.23	37811.65
800.41	37504.45
800.59	37623.23
800.77	37365.19
800.95	37162.44
801.13	37473.73
801.31	37029.32
801.49	37082.57
801.67	37084.62
801.85	37103.05
802.03	37223.88
802.21	36668.88
802.39	36341.21
802.57	36447.70
802.75	36896.20
802.93	36756.94
803.11	36586.96
803.29	36361.69
803.47	36038.11
803.65	36539.86
803.83	36003.29
804.01	36218.33
804.19	35628.51
804.37	35648.99
804.55	35800.54
804.73	35669.47
804.91	35741.15
805.09	35491.30
805.27	35182.06
805.45	35186.15
805.63	35212.77
805.81	35233.25
805.99	35409.38
806.17	35247.59
806.35	34887.15
806.53	34665.97
806.71	35132.90
806.89	34860.52
807.07	34809.32
807.25	35227.11
807.43	34405.88
807.61	34899.44
807.79	34346.48
807.97	34489.84
808.15	34313.72
808.33	33983.99
808.51	34074.10
808.69	34084.34
808.87	33580.54
809.05	33752.57
809.23	33494.53
809.41	33568.26
809.59	33404.42
809.77	33771.00
809.95	33291.78
810.13	33572.35
810.31	33203.72
810.49	33625.60
810.67	33203.72
810.84	33482.24
811.02	33265.16
811.20	32835.08
811.38	33146.37
811.56	33111.56
811.74	32669.20
811.92	32683.53
812.10	32439.82
812.28	32919.05
812.46	32601.61
812.64	32497.17
812.82	32589.33
813.00	32572.94
813.18	32280.08
813.36	32269.84
813.53	32517.65
813.71	32087.57
813.89	32132.63
814.07	32171.54
814.25	31940.12
814.43	31909.40
814.61	31823.39
814.79	31622.69
814.97	31718.94
815.15	31630.88
815.33	31544.86
815.50	31145.51
815.68	31395.36
815.86	31751.71
816.04	31333.92
816.22	31356.45
816.40	31143.46
816.58	31327.78
816.76	30983.72
816.94	30944.81
817.11	31106.60
817.29	31059.49
817.47	30922.28
817.65	30934.57
817.83	30682.67
818.01	30449.20
818.19	30881.32
818.37	30152.24
818.54	30131.76
818.72	30303.79
818.90	30543.41
819.08	30418.48
819.26	30193.20
819.44	30078.52
819.62	29955.64
819.80	30182.96
819.97	30291.51
820.15	30105.14
820.33	29963.83
820.51	29871.67
820.69	29830.71
820.87	30002.74
821.05	29916.73
821.22	29875.77
821.40	29920.82
821.58	29558.33
821.76	29476.41
821.94	29169.22
822.12	28913.22
822.29	29283.91
822.47	29040.20
822.65	29447.74
822.83	29251.14
823.01	28864.07
823.19	29222.47
823.36	28542.54
823.54	28980.81
823.72	28851.78
823.90	28653.13
824.08	28788.30
824.25	28851.78
824.43	28442.19
824.61	28393.04
824.79	28540.49
824.97	28358.22
825.15	28524.11
825.32	28581.45
825.50	28178.00
825.68	28278.35
825.86	28378.70
826.04	28581.45
826.21	28192.34
826.39	28073.56
826.57	27999.83
826.75	27575.90
826.93	27819.61
827.10	27782.74
827.28	27772.50
827.46	27872.85
827.64	28091.99
827.81	27870.81
827.99	27469.40
828.17	27532.89
828.35	27467.36
828.53	27539.04
828.70	27649.63
828.88	27319.90
829.06	27475.55
829.24	27688.54
829.41	27078.24
829.59	27625.05
829.77	27350.62
829.95	27145.83
830.12	27147.87
830.30	27162.21
830.48	26951.27
830.66	27160.16
830.84	26969.70
831.01	27018.85
831.19	26635.88
831.37	26945.12
831.55	26822.25
831.72	26590.83
831.90	26740.33
832.08	26533.48
832.25	26691.18
832.43	26637.93
832.61	26558.06
832.79	26230.38
832.96	26582.63
833.14	26574.44
833.32	26693.22
833.50	26549.87
833.67	26353.26
833.85	26564.20
834.03	25964.15
834.20	26224.24
834.38	26048.11
834.56	26345.07
834.74	25804.41
834.91	25982.58
835.09	26318.45
835.27	25814.65
835.44	26072.69
835.62	25427.58
835.80	25884.28
835.98	25538.17
836.15	25425.53
836.33	25667.19
836.51	25788.02
836.68	25443.96
836.86	25282.17
837.04	25728.63
837.21	25591.42
837.39	25484.92
837.57	25630.33
837.75	25644.66
837.92	25015.94
838.10	25157.25
838.28	25116.29
838.45	25235.07
838.63	24923.78
838.81	25280.13
838.98	24841.86
839.16	24897.16
839.34	25243.26
839.51	24815.24
839.69	24559.24
839.87	24995.46
840.04	24872.58
840.22	25095.81
840.40	24788.61
840.57	24338.06
840.75	24784.52
840.93	24405.64
841.10	24870.53
841.28	24704.65
841.46	24788.61
841.63	24761.99
841.81	24567.43
841.98	24401.55
842.16	24462.99
842.34	24673.93
842.51	24219.28
842.69	24794.76
842.87	24280.72
843.04	24272.53
843.22	24358.54
843.40	24417.93
843.57	24362.64
843.75	24094.35
843.92	24163.98
844.10	24108.69
844.28	23844.50
844.45	24254.09
844.63	24032.91
844.81	23932.56
844.98	24125.07
845.16	23772.82
845.33	23926.42
845.51	23649.94
845.69	23840.40
845.86	23643.80
846.04	23918.23
846.21	23611.03
846.39	23578.26
846.57	23647.90
846.74	23637.66
846.92	23406.23
847.09	23516.83
847.27	23254.69
847.45	23592.60
847.62	23211.68
847.80	23463.58
847.97	23654.04
848.15	23127.71
848.32	22711.97
848.50	23066.27
848.68	23068.32
848.85	23060.13
849.03	22900.39
849.20	23056.03
849.38	22867.62
849.56	23447.19
849.73	22847.14
849.91	22832.80
850.08	23309.98
850.26	22458.03
850.43	22873.76
850.61	23066.27
850.78	22539.94
850.96	22939.30
851.14	22703.78
851.31	22836.90
851.49	22574.76
851.66	22685.35
851.84	22632.10
852.01	22824.61
852.19	22570.66
852.36	22548.14
852.54	22562.47
852.71	22593.19
852.89	22384.30
853.07	22449.83
853.24	22523.56
853.42	22234.80
853.59	22197.93
853.77	22247.08
853.94	22304.43
854.12	22300.33
854.29	22185.65
854.47	22286.00
854.64	22261.42
854.82	22195.89
854.99	22062.77
855.17	22034.10
855.34	21806.77
855.52	21898.93
855.69	22085.30
855.87	21884.59
856.04	21825.20
856.22	22009.52
856.39	21589.69
856.57	21948.08
856.74	21683.89
856.92	21700.28
857.09	21933.75
857.27	21993.14
857.44	21853.87
857.62	21943.99
857.79	21769.91
857.97	21591.73
858.14	21554.87
858.32	21561.02
858.49	21814.96
858.67	21388.99
858.84	21382.84
859.02	21472.95
859.19	20993.73
859.37	21087.93
859.54	21319.35
859.72	21345.98
859.89	21509.82
860.06	21538.49
860.24	21057.21
860.41	21212.86
860.59	20989.63
860.76	21348.03
860.94	20917.95
861.11	21161.66
861.29	20946.62
861.46	20991.68
861.64	20760.26
861.81	20844.23
861.98	20999.87
862.16	20907.71
862.33	20772.55
862.51	20729.54
862.68	20889.28
862.86	20801.22
863.03	20659.91
863.21	20436.68
863.38	20532.93
863.55	20647.62
863.73	20737.73
863.90	20694.72
864.08	20420.30
864.25	20592.33
864.43	20854.47
864.60	20606.66
864.77	20549.32
864.95	20659.91
865.12	20268.75
865.30	20430.54
865.47	20502.22
865.64	20418.25
865.82	20424.39
865.99	20778.69
866.17	20403.91
866.34	20219.60
866.51	19990.22
866.69	20317.90
866.86	20324.04
867.04	20272.84
867.21	20098.77
867.38	19924.69
867.56	20248.27
867.73	19982.03
867.91	20012.75
868.08	20152.01
868.25	19857.10
868.43	20055.76
868.60	19773.14
868.78	19939.02
868.95	19738.32
869.12	19705.56
869.30	19748.56
869.47	20014.80
869.64	19689.17
869.82	19734.23
869.99	19511.00
870.16	19930.83
870.34	19338.97
870.51	19797.71
870.69	19410.65
870.86	19531.48
871.03	19381.98
871.21	19343.06
871.38	19560.15
871.55	19435.22
871.73	19312.35
871.90	19146.46
872.07	19113.69
872.25	18884.32
872.42	19173.08
872.59	18988.77
872.77	18749.15
872.94	19105.50
873.11	18796.26
873.29	18968.29
873.46	18908.90
873.63	18904.80
873.81	18931.42
873.98	18796.26
874.15	18700.00
874.33	18685.67
874.50	18704.10
874.67	18736.87
874.85	18640.61
875.02	18620.13
875.19	18534.12
875.37	18525.93
875.54	18495.21
875.71	18634.47
875.88	18233.07
876.06	18370.28
876.23	18464.49
876.40	18308.84
876.58	18208.49
876.75	18269.93
876.92	18069.23
877.10	18255.59
877.27	18169.58
877.44	17932.01
877.61	17923.82
877.79	17901.29
877.96	18089.71
878.13	18155.24
878.31	17968.88
878.48	17954.54
878.65	18093.80
878.82	17573.62
879.00	17778.42
879.17	17880.82
879.34	17762.03
879.51	17624.82
879.69	17565.43
879.86	17399.54
880.03	17686.26
880.21	17444.60
880.38	17737.46
880.55	17481.46
880.72	17344.25
880.90	17499.89
881.07	17436.41
881.24	17209.08
881.41	17463.03
881.59	17417.97
881.76	17360.63
881.93	17520.37
882.10	17460.98
882.28	17319.67
882.45	17153.79
882.62	17188.60
882.79	17503.99
882.96	17004.28
883.14	17313.53
883.31	17252.09
883.48	17172.22
883.65	17336.06
883.83	17186.55
884.00	17133.31
884.17	17194.75
884.34	17020.67
884.51	16957.18
884.69	17065.72
884.86	16957.18
885.03	16926.46
885.20	16869.12
885.38	16844.54
885.55	16983.80
885.72	16905.98
885.89	17086.20
886.06	16871.17
886.24	17012.48
886.41	16891.65
886.58	17059.58
886.75	16979.71
886.92	16828.16
887.10	16834.30
887.27	16721.66
887.44	16676.61
887.61	17010.43
887.78	16682.75
887.95	16604.93
888.13	16731.90
888.30	16492.29
888.47	16428.81
888.64	16684.80
888.81	16402.18
888.99	16500.48
889.16	16088.84
889.33	16228.10
889.50	16482.05
889.67	16295.69
889.84	16097.03
890.01	16379.65
890.19	16340.74
890.36	16414.47
890.53	16334.60
890.70	16076.55
890.87	16363.27
891.04	16285.45
891.22	16015.12
891.39	16174.86
891.56	16162.57
891.73	16148.23
891.90	15800.08
892.07	15935.24
892.24	15925.00
892.42	15664.91
892.59	15896.33
892.76	16082.70
892.93	16080.65
893.10	16076.55
893.27	16068.36
893.44	15718.16
893.61	15791.89
893.79	15882.00
893.96	15714.06
894.13	15841.04
894.30	15628.05
894.47	15654.67
894.64	15705.87
894.81	15726.35
894.98	15830.80
895.15	15808.27
895.33	15828.75
895.50	15601.43
895.67	15630.10
895.84	15623.95
896.01	15884.05
896.18	15462.16
896.35	15822.61
896.52	15759.12
896.69	15634.19
896.86	15804.17
897.04	15650.58
897.21	15470.36
897.38	15603.47
897.55	15847.18
897.72	15824.65
897.89	15779.60
898.06	15755.02
898.23	15396.63
898.40	15736.59
898.57	15646.48
898.74	15757.07
898.91	15343.38
899.08	15578.90
899.26	15628.05
899.43	15759.12
899.60	15501.08
899.77	15841.04
899.94	15513.36
900.11	15449.88
900.28	15488.79
900.45	15535.89
900.62	15490.84
900.79	15693.58
900.96	15535.89
901.13	15683.34
901.30	15449.88
901.47	15505.17
901.64	15640.34
901.81	15644.43
901.98	15226.65
902.15	15742.74
902.32	15386.39
902.49	15662.86
902.66	15644.43
902.83	15501.08
903.01	15429.40
903.18	15673.10
903.35	15570.71
903.52	15476.50
903.69	15707.92
903.86	15572.75
904.03	15669.01
904.20	15634.19
904.37	15677.20
904.54	15554.32
904.71	15316.76
904.88	15744.78
905.05	15585.04
905.22	15740.69
905.39	15331.09
905.56	15513.36
905.73	15466.26
905.90	15705.87
906.07	15415.06
906.24	15666.96
906.41	15337.24
906.58	15691.54
906.75	15466.26
906.92	15327.00
907.09	15490.84
907.26	15578.90
907.43	15355.67
907.60	15316.76
907.77	15519.51
907.93	15531.80
908.10	15763.22
908.27	15621.91
908.44	15546.13
908.61	15501.08
908.78	15331.09
908.95	15597.33
909.12	15460.12
909.29	15488.79
909.46	15566.61
909.63	15632.15
909.80	15339.29
909.97	15304.47
910.14	15396.63
910.31	15386.39
910.48	15503.12
910.65	15265.56
910.82	15263.51
910.99	15423.25
911.16	15392.53
911.33	15525.65
911.50	15341.33
911.66	15253.27
911.83	15329.05
912.00	14997.28
912.17	14937.88
912.34	15089.43
912.51	15019.80
912.68	14847.77
912.85	15025.95
913.02	15374.10
913.19	15126.30
913.36	15150.87
913.53	15003.42
913.70	14749.47
913.86	15134.49
914.03	14995.23
914.20	14712.61
914.37	14737.18
914.54	14917.40
914.71	14886.68
914.88	14886.68
915.05	14688.03
915.22	14767.90
915.39	14864.16
915.55	14546.72
915.72	14464.80
915.89	14544.67
916.06	14606.11
916.23	14534.43
916.40	14462.76
916.57	14374.69
916.74	14399.27
916.91	14260.01
917.07	14382.88
917.24	14090.02
917.41	14462.76
917.58	14323.49
917.75	14219.05
917.92	14051.11
918.09	14135.08
918.26	14327.59
918.42	14090.02
918.59	13911.85
918.76	13991.72
918.93	13975.34
919.10	13950.76
919.27	13891.37
919.44	13911.85
919.60	13846.32
919.77	13879.08
919.94	13662.00
920.11	13702.96
920.28	13737.77
920.45	13537.07
920.61	13479.73
920.78	13537.07
920.95	13494.07
921.12	13588.27
921.29	13524.79
921.46	13324.08
921.62	13225.78
921.79	13178.68
921.96	13268.79
922.13	13152.06
922.30	12859.20
922.47	12855.10
922.63	12832.57
922.80	13035.32
922.97	12969.79
923.14	12640.06
923.31	12969.79
923.47	12609.34
923.64	13135.67
923.81	12805.95
923.98	12724.03
924.15	12650.30
924.32	12617.54
924.48	12521.28
924.65	12529.47
924.82	12209.99
924.99	12382.02
925.15	12267.33
925.32	12386.12
925.49	12287.81
925.66	12318.53
925.83	12332.87
925.99	12025.67
926.16	12115.78
926.33	12095.30
926.50	11872.07
926.67	12130.12
926.83	11853.64
927.00	11763.53
927.17	11745.10
927.34	11732.81
927.50	11679.57
927.67	11847.50
927.84	11679.57
928.01	11743.05
928.17	11659.09
928.34	11540.30
928.51	11540.30
928.68	11290.45
928.84	11323.22
929.01	11110.23
929.18	11294.55
929.35	11235.16
929.51	11126.61
929.68	11022.17
929.85	10932.06
930.02	11138.90
930.18	11161.43
930.35	10954.58
930.52	10766.17
930.69	11046.74
930.85	10778.46
931.02	10805.08
931.19	10583.90
931.36	10665.82
931.52	10487.65
931.69	10721.12
931.86	10571.61
932.02	10440.54
932.19	10489.70
932.36	10229.60
932.53	10383.20
932.69	10248.04
932.86	10223.46
933.03	10297.19
933.19	10006.38
933.36	10024.81
933.53	10088.29
933.70	9971.56
933.86	9781.10
934.03	9930.60
934.20	9881.45
934.36	9914.22
934.53	9668.46
934.70	9631.60
934.86	9535.34
935.03	9389.94
935.20	9469.81
935.36	9394.03
935.53	9226.10
935.70	9334.64
935.86	9291.63
936.03	9015.16
936.20	8857.46
936.36	8808.31
936.53	8996.73
936.70	8697.72
936.86	8841.08
937.03	8605.56
937.20	8433.54
937.36	8433.54
937.53	8142.72
937.70	8169.35
937.86	8128.39
938.03	7960.45
938.20	8218.50
938.36	7931.78
938.53	8081.28
938.70	7712.65
938.86	7813.00
939.03	7643.02
939.20	7475.09
939.36	7319.44
939.53	7395.22
939.70	7460.75
939.86	7096.21
940.03	7098.26
940.19	6985.62
940.36	7042.96
940.53	6875.03
940.69	6875.03
940.86	6948.76
941.03	6643.61
941.19	6573.98
941.36	6582.17
941.52	6463.39
941.69	6336.42
941.86	6428.57
942.02	6397.85
942.19	6266.78
942.35	6229.92
942.52	6121.38
942.69	5957.54
942.85	6059.94
943.02	6047.65
943.18	6080.42
943.35	5971.88
943.52	5908.39
943.68	5861.29
943.85	5928.87
944.01	5908.39
944.18	5640.11
944.35	5693.35
944.51	5679.02
944.68	5644.20
944.84	5537.71
945.01	5588.91
945.17	5726.12
945.34	5636.01
945.51	5595.05
945.67	5511.08
945.84	5535.66
946.00	5533.61
946.17	5449.64
946.33	5310.38
946.50	5525.42
946.67	5523.37
946.83	5488.56
947.00	5326.77
947.16	5408.69
947.33	5371.82
947.49	5461.93
947.66	5277.62
947.82	5451.69
947.99	5486.51
948.16	5490.60
948.32	5334.96
948.49	5466.03
948.65	5418.93
948.82	5367.73
948.98	5392.30
949.15	5253.04
949.31	5521.32
949.48	5427.12
949.64	5279.66
949.81	5443.50
949.97	5515.18
950.14	5380.01
950.30	5320.62
950.47	5537.71
950.63	5341.10
950.80	5334.96
950.96	5300.14
951.13	5375.92
951.30	5541.80
951.46	5463.98
951.63	5564.33
951.79	5459.88
951.96	5513.13
952.12	5427.12
952.29	5519.28
952.45	5484.46
952.62	5535.66
952.78	5515.18
952.94	5396.40
953.11	5509.04
953.27	5382.06
953.44	5521.32
953.60	5418.93
953.77	5568.43
953.93	5562.28
954.10	5402.54
954.26	5515.18
954.43	5457.84
954.59	5593.00
954.76	5519.28
954.92	5531.56
955.09	5529.52
955.25	5545.90
955.42	5486.51
955.58	5541.80
955.75	5629.87
955.91	5504.94
956.07	5578.67
956.24	5584.81
956.40	5476.27
956.57	5750.70
956.73	5590.95
956.90	5619.63
957.06	5599.15
957.23	5652.39
957.39	5429.17
957.56	5533.61
957.72	5509.04
957.88	5584.81
958.05	5650.35
958.21	5654.44
958.38	5496.75
958.54	5595.05
958.71	5631.91
958.87	5590.95
959.03	5539.76
959.20	5527.47
959.36	5550.00
959.53	5437.36
959.69	5576.62
959.85	5697.45
960.02	5498.80
960.18	5603.24
960.35	5531.56
960.51	5552.04
960.68	5418.93
960.84	5310.38
961.00	5459.88
961.17	5554.09
961.33	5556.14
961.50	5529.52
961.66	5597.10
961.82	5375.92
961.99	5640.11
962.15	5482.41
962.31	5472.17
962.48	5556.14
962.64	5642.15
962.81	5447.60
962.97	5543.85
963.13	5519.28
963.30	5398.45
963.46	5357.49
963.62	5359.53
963.79	5394.35
963.95	5408.69
964.12	5326.77
964.28	5498.80
964.44	5283.76
964.61	5463.98
964.77	5377.97
964.93	5504.94
965.10	5324.72
965.26	5427.12
965.42	5365.68
965.59	5330.86
965.75	5459.88
965.92	5291.95
966.08	5369.77
966.24	5439.40
966.41	5207.98
966.57	5394.35
966.73	5353.39
966.90	5406.64
967.06	5242.80
967.22	5195.70
967.39	5263.28
967.55	5232.56
967.71	5220.27
967.88	5197.74
968.04	5167.03
968.20	5250.99
968.37	5111.73
968.53	5095.35
968.69	5115.83
968.85	5246.90
969.02	5339.05
969.18	5238.70
969.34	5175.22
969.51	5171.12
969.67	5263.28
969.83	5040.05
970.00	5193.65
970.16	5113.78
970.32	5138.35
970.48	5156.79
970.65	5089.20
970.81	5007.28
970.97	5052.34
971.14	4954.04
971.30	5078.96
971.46	5056.43
971.63	4947.89
971.79	5160.88
971.95	5124.02
972.11	5005.24
972.28	5029.81
972.44	5040.05
972.60	4908.98
972.76	4990.90
972.93	4822.97
973.09	4915.12
973.25	5054.39
973.42	4935.60
973.58	4964.28
973.74	4902.84
973.90	4960.18
974.07	4935.60
974.23	4779.96
974.39	4890.55
974.55	4915.12
974.72	4767.67
974.88	4779.96
975.04	4751.29
975.20	4833.21
975.37	4835.25
975.53	4847.54
975.69	4739.00
975.85	4743.10
976.01	4763.58
976.18	4702.14
976.34	4743.10
976.50	4845.49
976.66	4919.22
976.83	4786.10
976.99	4605.88
977.15	4739.00
977.31	4628.41
977.47	4771.77
977.64	4546.49
977.80	4655.03
977.96	4753.34
978.12	4636.60
978.29	4523.96
978.45	4474.81
978.61	4632.51
978.77	4562.87
978.93	4511.68
979.10	4622.27
979.26	4655.03
979.42	4489.15
979.58	4437.95
979.74	4442.04
979.91	4485.05
980.07	4368.32
980.23	4458.43
980.39	4507.58
980.55	4380.61
980.71	4415.42
980.88	4323.26
981.04	4386.75
981.20	4374.46
981.36	4409.28
981.52	4386.75
981.68	4214.72
981.85	4448.19
982.01	4343.74
982.17	4376.51
982.33	4249.54
982.49	4472.76
982.65	4247.49
982.82	4188.10
982.98	4351.93
983.14	4171.71
983.30	4327.36
983.46	4181.95
983.62	4294.59
983.79	4290.49
983.95	4149.18
984.11	4001.73
984.27	4313.02
984.43	4085.70
984.59	4153.28
984.75	4218.82
984.91	4161.47
985.08	4169.66
985.24	3977.16
985.40	4067.27
985.56	4097.99
985.72	4181.95
985.88	4112.32
986.04	4106.18
986.20	4145.09
986.37	4061.12
986.53	4079.55
986.69	4042.69
986.85	3960.77
987.01	3911.62
987.17	4009.92
987.33	4032.45
987.49	3923.91
987.65	3983.30
987.82	3971.01
987.98	3993.54
988.14	3925.96
988.30	3907.52
988.46	3887.04
988.62	3934.15
988.78	3928.00
988.94	3891.14
989.10	3940.29
989.26	3956.68
989.42	3745.73
989.59	3801.03
989.75	3764.17
989.91	3831.75
990.07	3731.40
990.23	3610.57
990.39	3786.69
990.55	3815.37
990.71	3745.73
990.87	3819.46
991.03	3846.09
991.19	3737.54
991.35	3674.06
991.51	3868.61
991.67	3708.87
991.83	3764.17
992.00	3715.02
992.16	3762.12
992.32	3659.72
992.48	3641.29
992.64	3661.77
992.80	3753.93
992.96	3690.44
993.12	3729.35
993.28	3647.43
993.44	3602.38
993.60	3594.19
993.76	3665.86
993.92	3596.23
994.08	3502.03
994.24	3633.10
994.40	3524.55
994.56	3626.95
994.72	3565.51
994.88	3575.75
995.04	3534.79
995.20	3512.27
995.36	3516.36
995.52	3499.98
995.68	3538.89
995.84	3379.15
996.00	3532.75
996.16	3524.55
996.32	3282.89
996.48	3459.02
996.64	3450.83
996.80	3473.36
996.96	3434.44
997.12	3452.88
997.28	3481.55
997.44	3323.85
997.60	3532.75
997.76	3305.42
997.92	3397.58
998.08	3395.53
998.24	3264.46
998.40	3289.04
998.56	3354.57
998.72	3248.08
998.88	3264.46
999.04	3211.22
999.20	3235.79
999.36	3286.99
999.52	3356.62
999.68	3260.37
999.84	3315.66
1000.00	3258.32
1000.16	3276.75
1000.32	3151.82
1000.48	3342.28
1000.64	3332.05
1000.80	3180.50
1000.95	3028.95
1001.11	3196.88
1001.27	3030.99
1001.43	3264.46
1001.59	3051.47
1001.75	3082.19
1001.91	3162.06
1002.07	3117.01
1002.23	3090.38
1002.39	3135.44
1002.55	3080.14
1002.71	3018.71
1002.87	3139.54
1003.03	3078.10
1003.19	3016.66
1003.34	3108.82
1003.50	3069.91
1003.66	3002.32
1003.82	3125.20
1003.98	2920.40
1004.14	3041.23
1004.30	3049.43
1004.46	3041.23
1004.62	2961.36
1004.78	3055.57
1004.94	2932.69
1005.09	2883.54
1005.25	3043.28
1005.41	2922.45
1005.57	2967.51
1005.73	2942.93
1005.89	2912.21
1006.05	3030.99
1006.21	2904.02
1006.37	2908.12
1006.52	2924.50
1006.68	2938.84
1006.84	2904.02
1007.00	2797.53
1007.16	2932.69
1007.32	2865.11
1007.48	2822.10
1007.64	2852.82
1007.79	2846.68
1007.95	2865.11
1008.11	2951.12
1008.27	2887.64
1008.43	2848.72
1008.59	2777.05
1008.75	2893.78
1008.91	2828.24
1009.06	2772.95
1009.22	2844.63
1009.38	2861.01
1009.54	2883.54
1009.70	2727.89
1009.86	2807.77
1010.01	2799.57
1010.17	2723.80
1010.33	2842.58
1010.49	2731.99
1010.65	2869.20
1010.81	2711.51
1010.96	2738.13
1011.12	2639.83
1011.28	2662.36
1011.44	2717.65
1011.60	2779.09
1011.76	2695.13
1011.91	2686.94
1012.07	2594.78
1012.23	2600.92
1012.39	2570.20
1012.55	2699.22
1012.71	2529.24
1012.86	2639.83
1013.02	2639.83
1013.18	2641.88
1013.34	2553.82
1013.50	2607.06
1013.65	2662.36
1013.81	2557.91
1013.97	2590.68
1014.13	2645.98
1014.29	2525.15
1014.44	2623.45
1014.60	2541.53
1014.76	2586.58
1014.92	2490.33
1015.07	2570.20
1015.23	2537.43
1015.39	2541.53
1015.55	2480.09
1015.71	2521.05
1015.86	2537.43
1016.02	2459.61
1016.18	2441.18
1016.34	2562.01
1016.49	2539.48
1016.65	2582.49
1016.81	2519.00
1016.97	2498.52
1017.12	2521.05
1017.28	2469.85
1017.44	2367.45
1017.60	2420.70
1017.75	2398.17
1017.91	2500.57
1018.07	2432.99
1018.23	2404.32
1018.38	2306.01
1018.54	2418.65
1018.70	2387.93
1018.86	2426.84
1019.01	2330.59
1019.17	2379.74
1019.33	2473.95
1019.49	2383.84
1019.64	2367.45
1019.80	2410.46
1019.96	2406.36
1020.12	2387.93
1020.27	2412.51
1020.43	2469.85
1020.59	2332.64
1020.74	2377.69
1020.90	2406.36
1021.06	2367.45
1021.22	2330.59
1021.37	2355.16
1021.53	2242.53
1021.69	2355.16
1021.84	2263.01
1022.00	2265.05
1022.16	2303.96
1022.31	2322.40
1022.47	2263.01
1022.63	2357.21
1022.79	2224.09
1022.94	2238.43
1023.10	2340.83
1023.26	2344.92
1023.41	2273.25
1023.57	2248.67
1023.73	2334.68
1023.88	2244.57
1024.04	2310.11
1024.20	2207.71
1024.35	2254.81
1024.51	2254.81
1024.67	2209.76
1024.82	2318.30
1024.98	2199.52
1025.14	2144.22
1025.29	2224.09
1025.45	2314.20
1025.61	2107.36
1025.76	2189.28
1025.92	2172.89
1026.08	2199.52
1026.23	2244.57
1026.39	2215.90
1026.55	2207.71
1026.70	2119.65
1026.86	2158.56
1027.02	2213.85
1027.17	2228.19
1027.33	2199.52
1027.48	2191.33
1027.64	2095.07
1027.80	2117.60
1027.95	2154.46
1028.11	2041.82
1028.27	2191.33
1028.42	2195.42
1028.58	2150.37
1028.73	2115.55
1028.89	2072.54
1029.05	2166.75
1029.20	2158.56
>>>>>End Processed Spectral Data<<<<<
