SpectraSuite Data File
++++++++++++++++++++++++++++++++++++
Date: Fri Jun 02 14:44:36 CEST 2017
User: INFO_000
Dark Spectrum Present: No
Reference Spectrum Present: No
Number of Sampled Component Spectra: 1
Spectrometers: USB4H00879
Integration Time (usec): 80000 (USB4H00879)
Spectra Averaged: 1 (USB4H00879)
Boxcar Smoothing: 0 (USB4H00879)
Correct for Electrical Dark: No (USB4H00879)
Strobe/Lamp Enabled: No (USB4H00879)
Correct for Detector Non-linearity: No (USB4H00879)
Correct for Stray Light: No (USB4H00879)
Number of Pixels in Processed Spectrum: 3648
>>>>>Begin Processed Spectral Data<<<<<
345.13	1220.59
345.34	1220.59
345.56	1220.59
345.78	1245.16
345.99	1222.64
346.21	1744.87
346.42	1765.35
346.64	1626.09
346.86	1808.36
347.07	1708.01
347.29	1734.63
347.50	1658.85
347.72	1574.89
347.94	1814.50
348.15	1648.61
348.37	1583.08
348.59	1703.91
348.80	1673.19
349.02	1728.49
349.23	1861.60
349.45	1843.17
349.67	1837.03
349.88	1781.73
350.10	1927.14
350.31	1818.60
350.53	1845.22
350.75	1935.33
350.96	1804.26
351.18	1837.03
351.39	1841.12
351.61	1839.08
351.82	1886.18
352.04	1937.38
352.26	1863.65
352.47	1945.57
352.69	1869.80
352.90	1826.79
353.12	1824.74
353.34	1843.17
353.55	1933.28
353.77	1910.75
353.98	1863.65
354.20	1798.12
354.41	1920.99
354.63	1941.47
354.85	2052.06
355.06	1931.23
355.28	1804.26
355.49	1892.32
355.71	1867.75
355.92	1884.13
356.14	1970.15
356.35	1912.80
356.57	1839.08
356.79	1863.65
357.00	1851.36
357.22	1933.28
357.43	1910.75
357.65	1955.81
357.86	1961.95
358.08	1935.33
358.29	1996.77
358.51	1953.76
358.72	1945.57
358.94	1884.13
359.16	1998.82
359.37	1902.56
359.59	1843.17
359.80	1945.57
360.02	1968.10
360.23	1937.38
360.45	2066.40
360.66	1886.18
360.88	1884.13
361.09	1918.95
361.31	1978.34
361.52	2011.11
361.74	1994.72
361.95	2025.44
362.17	1923.04
362.38	2050.02
362.60	2017.25
362.81	1986.53
363.03	2002.91
363.24	1933.28
363.46	2088.93
363.67	2019.30
363.89	1980.39
364.10	2029.54
364.32	1951.71
364.53	2076.64
364.75	1945.57
364.96	2086.88
365.18	1990.63
365.39	1945.57
365.61	1980.39
365.82	2093.02
366.04	2013.15
366.25	2011.11
366.47	2011.11
366.68	2029.54
366.90	1900.52
367.11	2058.21
367.33	2019.30
367.54	2129.89
367.76	2017.25
367.97	2129.89
368.19	2060.26
368.40	2086.88
368.62	2021.35
368.83	2039.78
369.05	2027.49
369.26	2023.39
369.48	2019.30
369.69	2025.44
369.91	2000.87
370.12	2029.54
370.33	2101.22
370.55	1951.71
370.76	2039.78
370.98	2111.46
371.19	1986.53
371.41	2004.96
371.62	2052.06
371.84	1994.72
372.05	2209.76
372.27	2123.74
372.48	2058.21
372.69	2154.46
372.91	2144.22
373.12	2121.70
373.34	2117.60
373.55	2179.04
373.77	2207.71
373.98	2144.22
374.20	2172.89
374.41	2256.86
374.62	2064.35
374.84	2164.70
375.05	2215.90
375.27	2103.26
375.48	2133.98
375.70	2125.79
375.91	2222.05
376.12	2166.75
376.34	2162.66
376.55	2127.84
376.77	2174.94
376.98	2056.16
377.19	2111.46
377.41	2174.94
377.62	2109.41
377.84	2250.72
378.05	2338.78
378.27	2269.15
378.48	2285.53
378.69	2346.97
378.91	2248.67
379.12	2277.34
379.34	2174.94
379.55	2256.86
379.76	2263.01
379.98	2191.33
380.19	2209.76
380.41	2238.43
380.62	2260.96
380.83	2260.96
381.05	2228.19
381.26	2426.84
381.47	2293.72
381.69	2306.01
381.90	2359.26
382.12	2275.29
382.33	2289.63
382.54	2256.86
382.76	2289.63
382.97	2312.16
383.19	2338.78
383.40	2301.92
383.61	2263.01
383.83	2248.67
384.04	2254.81
384.25	2336.73
384.47	2369.50
384.68	2359.26
384.89	2330.59
385.11	2351.07
385.32	2267.10
385.54	2443.23
385.75	2365.40
385.96	2432.99
386.18	2441.18
386.39	2443.23
386.60	2381.79
386.82	2469.85
387.03	2498.52
387.24	2449.37
387.46	2478.04
387.67	2465.75
387.88	2562.01
388.10	2451.42
388.31	2478.04
388.52	2631.64
388.74	2584.54
388.95	2449.37
389.16	2557.91
389.38	2473.95
389.59	2555.86
389.80	2648.02
390.02	2527.19
390.23	2682.84
390.44	2516.95
390.66	2496.47
390.87	2541.53
391.08	2521.05
391.30	2713.56
391.51	2654.17
391.72	2656.22
391.94	2564.06
392.15	2633.69
392.36	2592.73
392.58	2562.01
392.79	2602.97
393.00	2691.03
393.22	2744.28
393.43	2760.66
393.64	2779.09
393.85	2760.66
394.07	2676.70
394.28	2709.46
394.49	2844.63
394.71	2871.25
394.92	2940.88
395.13	2764.76
395.35	2691.03
395.56	2799.57
395.77	2760.66
395.98	2904.02
396.20	2836.44
396.41	2854.87
396.62	2934.74
396.84	2820.05
397.05	2803.67
397.26	2908.12
397.47	2904.02
397.69	2828.24
397.90	3041.23
398.11	2953.17
398.32	2824.15
398.54	2861.01
398.75	2891.73
398.96	2912.21
399.18	3106.77
399.39	2940.88
399.60	3131.34
399.81	2938.84
400.03	2926.55
400.24	3262.41
400.45	2949.08
400.66	3022.80
400.88	3020.75
401.09	3108.82
401.30	3102.67
401.51	3145.68
401.73	3090.38
401.94	3203.02
402.15	3086.29
402.36	3086.29
402.58	3215.31
402.79	3227.60
403.00	3143.63
403.21	3112.91
403.43	3305.42
403.64	3305.42
403.85	3180.50
404.06	3166.16
404.27	3147.73
404.49	3121.10
404.70	3203.02
404.91	3235.79
405.12	3243.98
405.34	3291.09
405.55	3446.73
405.76	3272.65
405.97	3229.65
406.19	3430.35
406.40	3272.65
406.61	3311.57
406.82	3381.20
407.03	3428.30
407.25	3434.44
407.46	3383.24
407.67	3442.64
407.88	3454.92
408.09	3403.72
408.31	3409.87
408.52	3405.77
408.73	3432.40
408.94	3338.19
409.15	3465.16
409.37	3579.85
409.58	3452.88
409.79	3561.42
410.00	3540.94
410.21	3389.39
410.43	3585.99
410.64	3452.88
410.85	3510.22
411.06	3600.33
411.27	3508.17
411.48	3614.66
411.70	3555.27
411.91	3524.55
412.12	3680.20
412.33	3672.01
412.54	3600.33
412.76	3715.02
412.97	3727.30
413.18	3579.85
413.39	3657.67
413.60	3606.47
413.81	3710.92
414.03	3678.15
414.24	3704.78
414.45	3856.33
414.66	3647.43
414.87	3839.94
415.08	3708.87
415.30	3710.92
415.51	3788.74
415.72	3803.08
415.93	3774.41
416.14	3776.45
416.35	3882.95
416.56	3866.56
416.78	3891.14
416.99	3835.85
417.20	3729.35
417.41	3975.11
417.62	3819.46
417.83	3991.49
418.04	3841.99
418.26	3942.34
418.47	3946.44
418.68	3917.76
418.89	4011.97
419.10	4184.00
419.31	4118.47
419.52	4104.13
419.73	4038.59
419.95	4077.51
420.16	3979.20
420.37	4067.27
420.58	4085.70
420.79	3858.37
421.00	4061.12
421.21	4075.46
421.42	4165.57
421.63	4087.75
421.85	4190.14
422.06	4253.63
422.27	4153.28
422.48	4100.03
422.69	4372.41
422.90	4267.97
423.11	4329.41
423.32	4304.83
423.53	4374.46
423.75	4214.72
423.96	4464.57
424.17	4503.48
424.38	4511.68
424.59	4333.50
424.80	4493.24
425.01	4470.72
425.22	4497.34
425.43	4278.21
425.64	4620.22
425.85	4687.80
426.06	4470.72
426.28	4523.96
426.49	4554.68
426.70	4528.06
426.91	4595.64
427.12	4618.17
427.33	4495.29
427.54	4575.16
427.75	4722.62
427.96	4755.38
428.17	4870.07
428.38	4700.09
428.59	4956.08
428.80	4712.38
429.01	4872.12
429.23	4956.08
429.44	4896.69
429.65	4947.89
429.86	5027.76
430.07	4739.00
430.28	4917.17
430.49	5167.03
430.70	5193.65
430.91	5089.20
431.12	4954.04
431.33	5183.41
431.54	5154.74
431.75	5181.36
431.96	5267.38
432.17	5234.61
432.38	5107.63
432.59	5273.52
432.80	5246.90
433.01	5283.76
433.22	5312.43
433.43	5265.33
433.64	5207.98
433.85	5375.92
434.06	5496.75
434.27	5341.10
434.49	5484.46
434.70	5541.80
434.91	5517.23
435.12	5484.46
435.33	5597.10
435.54	5506.99
435.75	5423.02
435.96	5502.89
436.17	5418.93
436.38	5689.26
436.59	5613.48
436.80	5752.74
437.01	5719.98
437.22	5906.34
437.43	5691.31
437.64	5593.00
437.85	5730.22
438.06	6049.70
438.27	5793.70
438.48	5863.33
438.69	5920.68
438.90	5840.81
439.11	5746.60
439.32	6037.41
439.53	5932.97
439.74	5863.33
439.95	6074.28
440.16	6016.93
440.37	5961.64
440.57	5867.43
440.78	6068.13
440.99	6266.78
441.20	6164.39
441.41	6090.66
441.62	6123.43
441.83	5879.72
442.04	6211.49
442.25	6221.73
442.46	6213.54
442.67	6238.11
442.88	6705.05
443.09	6129.57
443.30	6203.30
443.51	6293.41
443.72	6629.27
443.93	6229.92
444.14	6561.69
444.35	6375.33
444.56	6256.54
444.77	6260.64
444.98	6373.28
445.19	6522.78
445.40	6440.86
445.61	6432.67
445.81	6576.03
446.02	6539.16
446.23	6444.96
446.44	6291.36
446.65	6506.40
446.86	6537.12
447.07	6469.53
447.28	6653.85
447.49	6664.09
447.70	6565.79
447.91	6723.48
448.12	6758.30
448.33	6852.50
448.54	6813.59
448.74	6721.43
448.95	6795.16
449.16	6725.53
449.37	6981.53
449.58	6852.50
449.79	7137.17
450.00	6778.78
450.21	7047.06
450.42	7094.16
450.63	6938.52
450.84	7065.49
451.05	6932.37
451.25	6963.09
451.46	6887.32
451.67	7128.98
451.88	7319.44
452.09	7344.02
452.30	7090.07
452.51	7088.02
452.72	7331.73
452.93	7647.12
453.13	7253.91
453.34	7204.75
453.55	7333.78
453.76	7442.32
453.97	7450.51
454.18	7501.71
454.39	7628.68
454.60	7573.39
454.81	7481.23
455.01	7640.97
455.22	7276.43
455.43	7581.58
455.64	7954.31
455.85	7778.19
456.06	7948.17
456.27	7798.66
456.48	7763.85
456.68	8023.94
456.89	7864.20
457.10	7987.08
457.31	7939.97
457.52	7933.83
457.73	8073.09
457.94	8277.89
458.14	7931.78
458.35	8417.15
458.56	8175.49
458.77	8144.77
458.98	8259.46
459.19	8308.61
459.39	8478.59
459.60	8337.28
459.81	8449.92
460.02	8658.81
460.23	8552.32
460.44	8832.89
460.65	8695.68
460.85	8814.46
461.06	8748.92
461.27	8531.84
461.48	8976.25
461.69	9056.12
461.89	8667.00
462.10	8935.29
462.31	8904.57
462.52	8849.27
462.73	9160.56
462.94	9068.41
463.14	9162.61
463.35	9070.45
463.56	9693.04
463.77	9514.86
463.98	9179.00
464.18	9336.69
464.39	9604.97
464.60	9625.45
464.81	9570.16
465.02	9635.69
465.23	9856.87
465.43	9703.28
465.64	10116.97
465.85	9938.79
466.06	9801.58
466.27	10182.50
466.47	10243.94
466.68	9949.03
466.89	10231.65
467.10	10311.52
467.30	10006.38
467.51	10481.50
467.72	10649.44
467.93	10336.10
468.14	10510.18
468.34	10659.68
468.55	10694.49
468.76	10674.01
468.97	10682.20
469.17	11079.51
469.38	10753.88
469.59	11151.19
469.80	11050.84
470.01	10950.49
470.21	11181.91
470.42	11331.41
470.63	11308.88
470.84	11206.48
471.04	11474.77
471.25	11618.13
471.46	11597.65
471.67	11853.64
471.87	11849.55
472.08	11665.23
472.29	11999.05
472.50	11749.20
472.70	11861.84
472.91	12037.96
473.12	12220.23
473.33	12187.46
473.53	12166.98
473.74	12320.58
473.95	12590.91
474.16	12644.16
474.36	12619.58
474.57	12834.62
474.78	12857.15
474.99	12664.64
475.19	12611.39
475.40	12963.64
475.61	13217.59
475.81	13315.89
476.02	13213.49
476.23	13424.44
476.44	13606.70
476.64	13721.39
476.85	13743.92
477.06	13600.56
477.27	13887.28
477.47	14143.27
477.68	13872.94
477.89	14133.03
478.09	14229.29
478.30	14217.00
478.51	14305.06
478.71	14567.20
478.92	14305.06
479.13	14665.50
479.34	14780.19
479.54	14626.59
479.75	14796.57
479.96	15060.76
480.16	14843.68
480.37	15163.16
480.58	15159.06
480.78	15578.90
480.99	15292.18
481.20	15527.70
481.41	15582.99
481.61	15685.39
481.82	15769.36
482.03	15595.28
482.23	15814.41
482.44	15716.11
482.65	16162.57
482.85	15980.30
483.06	16111.37
483.27	16414.47
483.47	16236.30
483.68	16514.82
483.89	16647.94
484.09	16529.16
484.30	16682.75
484.51	16678.66
484.71	16744.19
484.92	17028.86
485.13	16940.80
485.33	16881.41
485.54	17061.63
485.75	17430.26
485.95	17696.50
486.16	17544.95
486.37	17753.84
486.57	17622.77
486.78	17452.79
486.98	17798.90
487.19	17923.82
487.40	18130.67
487.60	17905.39
487.81	18194.15
488.02	18058.99
488.22	18487.01
488.43	18411.24
488.64	18548.45
488.84	18689.76
489.05	18730.72
489.25	18659.04
489.46	18867.94
489.67	18986.72
489.87	19095.26
490.08	19318.49
490.29	19203.80
490.49	19601.11
490.70	19689.17
490.90	19652.31
491.11	19656.40
491.32	19568.34
491.52	19461.85
491.73	19658.45
491.94	19848.91
492.14	19803.86
492.35	20113.10
492.55	20205.26
492.76	20235.98
492.97	20401.86
493.17	20575.94
493.38	20547.27
493.58	20807.36
493.79	20655.81
494.00	20649.67
494.20	20924.10
494.41	21157.57
494.61	21151.42
494.82	21130.94
495.02	20967.10
495.23	21298.88
495.44	21235.39
495.64	21505.72
495.85	21692.08
496.05	21917.36
496.26	21663.41
496.47	21964.46
496.67	21976.75
496.88	22154.93
497.08	21589.69
497.29	22326.96
497.49	22242.99
497.70	22322.86
497.91	22355.63
498.11	22754.98
498.32	22599.34
498.52	22668.97
498.73	23033.50
498.93	22759.08
499.14	23103.14
499.34	23160.48
499.55	23490.20
499.76	23254.69
499.96	23045.79
500.17	23234.21
500.37	23428.76
500.58	23643.80
500.78	23510.68
500.99	23735.96
501.19	23946.90
501.40	23977.62
501.60	23901.84
501.81	23916.18
502.02	23768.73
502.22	24020.63
502.43	24186.51
502.63	24336.01
502.84	24465.03
503.04	24372.88
503.25	24385.16
503.45	24528.52
503.66	24921.73
503.86	24723.08
504.07	25069.19
504.27	24581.77
504.48	25017.99
504.68	25108.10
504.89	25380.48
505.09	25409.15
505.30	25271.93
505.50	25122.43
505.71	25454.20
505.91	25493.12
506.12	25392.76
506.32	25970.29
506.53	25532.03
506.73	25941.62
506.94	25908.85
507.14	26076.79
507.35	26087.03
507.55	26011.25
507.76	26300.01
507.96	26447.47
508.17	26177.14
508.37	26044.02
508.58	26390.13
508.78	26289.77
508.99	26574.44
509.19	26603.11
509.40	26607.21
509.60	26580.59
509.81	26396.27
510.01	27025.00
510.22	26898.02
510.42	26709.61
510.63	27199.07
510.83	26949.22
511.04	26963.56
511.24	27321.95
511.44	27145.83
511.65	27201.12
511.85	27008.61
512.06	27174.50
512.26	27518.56
512.47	27350.62
512.67	27663.96
512.88	27512.41
513.08	27278.94
513.29	27813.46
513.49	27670.11
513.69	27686.49
513.90	27967.06
514.10	27692.63
514.31	27780.70
514.51	27954.77
514.72	27924.05
514.92	28196.43
515.13	27938.39
515.33	28304.98
515.53	28237.39
515.74	28440.14
515.94	28352.08
516.15	28325.46
516.35	28347.98
516.56	28548.68
516.76	28538.44
516.96	28565.07
517.17	28862.02
517.37	28462.67
517.58	28601.93
517.78	28757.58
517.99	28671.56
518.19	29077.06
518.39	29347.39
518.60	28870.22
518.80	29095.49
519.01	28962.37
519.21	29181.51
519.41	29371.97
519.62	29195.84
519.82	29406.78
520.03	29703.74
520.23	29396.54
520.43	29214.27
520.64	29822.52
520.84	29732.41
521.05	29673.02
521.25	29654.59
521.45	29873.72
521.66	29953.59
521.86	29896.25
522.07	30152.24
522.27	29920.82
522.47	29916.73
522.68	30281.27
522.88	30250.55
523.08	30449.20
523.29	30197.30
523.49	30422.58
523.70	30803.50
523.90	30285.36
524.10	30610.99
524.31	30850.60
524.51	30578.22
524.71	31096.36
524.92	31082.02
525.12	30674.48
525.33	31151.65
525.53	31182.37
525.73	31227.43
525.94	31360.55
526.14	31114.79
526.34	31426.08
526.55	31268.39
526.75	31407.65
526.95	32015.90
527.16	31620.64
527.36	31718.94
527.56	31833.63
527.77	32120.34
527.97	31907.35
528.17	32040.47
528.38	32142.87
528.58	32405.01
528.78	32345.62
528.99	32349.71
529.19	32583.18
529.39	32388.63
529.60	32882.19
529.80	32499.22
530.00	32550.42
530.21	33254.92
530.41	32871.95
530.61	32923.15
530.82	32919.05
531.02	32757.26
531.22	33408.51
531.43	33148.42
531.63	33654.27
531.83	33754.62
532.04	33945.08
532.24	33687.04
532.44	33955.32
532.64	33728.00
532.85	34082.30
533.05	33771.00
533.25	33953.27
533.46	33844.73
533.66	34522.61
533.86	34164.21
534.07	34946.54
534.27	34780.65
534.47	34713.07
534.67	34840.04
534.88	34858.48
535.08	34874.86
535.28	35007.98
535.49	35341.80
535.69	35726.81
535.89	35167.72
536.09	35194.34
536.30	35948.00
536.50	35835.36
536.70	36117.98
536.91	35943.90
537.11	35751.39
537.31	35851.74
537.51	36353.49
537.72	36429.27
537.92	36218.33
538.12	36480.47
538.32	36249.05
538.53	36640.21
538.73	36484.56
538.93	36859.34
539.13	36734.42
539.34	37076.43
539.54	36926.92
539.74	37506.50
539.94	36988.36
540.15	37012.94
540.35	37696.96
540.55	37531.08
540.75	37301.70
540.96	37676.48
541.16	37703.10
541.36	38229.43
541.56	37907.90
541.77	38180.28
541.97	38284.73
542.17	38507.96
542.37	38077.88
542.58	38600.12
542.78	38436.28
542.98	38389.17
543.18	38794.67
543.38	38950.32
543.59	38718.90
543.79	38587.83
543.99	38682.03
544.19	39130.54
544.40	38938.03
544.60	39431.59
544.80	39249.32
545.00	39202.22
545.20	39794.08
545.41	39361.96
545.61	39693.73
545.81	39900.58
546.01	39613.86
546.21	39587.24
546.42	39794.08
546.62	40088.99
546.82	40256.92
547.02	40111.52
547.22	40154.52
547.43	40054.17
547.63	40269.21
547.83	40082.84
548.03	40246.68
548.23	40586.64
548.44	40773.01
548.64	40637.84
548.84	40869.26
549.04	40942.99
549.24	41137.55
549.45	41383.30
549.65	40578.45
549.85	41252.23
550.05	41022.86
550.25	40877.46
550.45	41883.01
550.66	41510.28
550.86	41174.41
551.06	41704.84
551.26	41921.92
551.46	42016.13
551.66	41598.34
551.87	42098.05
552.07	42216.83
552.27	42124.67
552.47	41899.39
552.67	42126.72
552.87	42237.31
553.07	42020.22
553.28	42296.70
553.48	42229.12
553.68	42280.31
553.88	42388.86
554.08	42300.79
554.28	42347.90
554.48	42560.89
554.69	42620.28
554.89	42917.23
555.09	42820.98
555.29	42550.65
555.49	42517.88
555.69	43038.06
555.89	42702.20
556.10	43021.68
556.30	42446.20
556.50	42825.07
556.70	42495.35
556.90	42954.10
557.10	42919.28
557.30	42685.81
557.50	43349.35
557.70	43507.05
557.91	43570.54
558.11	43023.73
558.31	43517.29
558.51	42993.01
558.71	43609.45
558.91	43588.97
559.11	43365.74
559.31	43787.62
559.51	43281.77
559.72	43543.91
559.92	43838.82
560.12	43775.33
560.32	43957.60
560.52	43640.17
560.72	43507.05
560.92	43570.54
561.12	44178.78
561.32	43615.59
561.52	43353.45
561.72	43881.83
561.93	43451.75
562.13	44000.61
562.33	43242.86
562.53	43820.39
562.73	43515.24
562.93	43847.01
563.13	44098.91
563.33	43885.92
563.53	44393.82
563.73	43677.03
563.93	43611.49
564.13	44238.17
564.33	44115.29
564.53	43894.11
564.74	44481.88
564.94	44000.61
565.14	44318.04
565.34	44053.86
565.54	44266.84
565.74	44227.93
565.94	44615.00
566.14	44668.25
566.34	44268.89
566.54	44660.05
566.74	44191.07
566.94	44637.53
567.14	44074.34
567.34	44225.89
567.54	44713.30
567.74	44014.94
567.94	44293.47
568.14	44602.71
568.34	44731.73
568.54	44842.32
568.74	44776.79
568.94	44635.48
569.14	44918.10
569.34	44367.20
569.54	44768.60
569.75	44610.90
569.95	44567.90
570.15	44848.47
570.35	44676.44
570.55	44797.27
570.75	45225.29
570.95	44891.48
571.15	45161.81
571.35	45397.32
571.55	45098.32
571.75	44924.24
571.95	44768.60
572.15	45448.52
572.35	45225.29
572.55	45024.59
572.75	45526.35
572.95	45225.29
573.15	45350.22
573.35	45399.37
573.55	45145.42
573.75	45378.89
573.95	45622.60
574.15	45247.82
574.35	45540.68
574.55	45862.21
574.75	45622.60
574.95	45493.58
575.15	45626.70
575.34	45634.89
575.54	45589.83
575.74	45940.04
575.94	45413.71
576.14	45937.99
576.34	45651.27
576.54	45708.61
576.74	45897.03
576.94	45888.84
577.14	45987.14
577.34	46036.29
577.54	46280.00
577.74	45976.90
577.94	46275.90
578.14	45978.95
578.34	46540.09
578.54	45999.43
578.74	46298.43
578.94	46495.03
579.14	46085.44
579.34	46558.52
579.54	46533.95
579.74	46703.93
579.94	46626.10
580.13	47033.65
580.33	46923.06
580.53	46650.68
580.73	46665.02
580.93	46603.58
581.13	47156.53
581.33	47062.32
581.53	46835.00
581.73	47045.94
581.93	47187.25
582.13	47269.17
582.33	47490.35
582.53	46976.31
582.73	46814.52
582.92	47527.21
583.12	47738.15
583.32	47664.42
583.52	47095.09
583.72	47752.49
583.92	47326.51
584.12	47596.84
584.32	48037.16
584.52	47594.79
584.72	47787.30
584.92	48002.34
585.11	48364.83
585.31	48227.62
585.51	48315.68
585.71	48321.82
585.91	48538.91
586.11	48309.53
586.31	48074.02
586.51	48370.97
586.71	48479.52
586.91	48753.94
587.10	48719.13
587.30	48760.09
587.50	48674.07
587.70	48561.44
587.90	48762.14
588.10	48919.83
588.30	48604.44
588.50	49313.04
588.69	48968.98
588.89	49184.02
589.09	49468.69
589.29	49165.59
589.49	49640.71
589.69	49143.06
589.89	49417.49
590.08	49677.58
590.28	49413.39
590.48	49417.49
590.68	49546.51
590.88	49411.34
591.08	49945.86
591.28	49585.42
591.47	49992.97
591.67	49872.14
591.87	49995.01
592.07	50334.98
592.27	49976.58
592.47	50132.23
592.67	50248.96
592.86	50367.74
593.06	50568.44
593.26	50337.02
593.46	50767.10
593.66	50629.88
593.86	50644.22
594.05	50410.75
594.25	51289.33
594.45	50619.64
594.65	50742.52
594.85	50713.85
595.05	51070.20
595.24	50697.47
595.44	50863.35
595.64	50928.89
595.84	50939.13
596.04	51303.67
596.23	51422.45
596.43	51485.93
596.63	51315.95
596.83	51432.69
597.03	51535.09
597.22	52270.31
597.42	51647.72
597.62	51897.58
597.82	51703.02
598.02	51627.24
598.21	52518.11
598.41	51866.86
598.61	52016.36
598.81	52317.41
599.01	52495.58
599.20	52061.41
599.40	52198.63
599.60	52374.75
599.80	52479.20
600.00	52548.83
600.19	53081.30
600.39	52088.04
600.59	52567.26
600.79	52782.30
600.98	53003.48
601.18	52966.62
601.38	53232.85
601.58	53294.29
601.78	53425.36
601.97	53128.41
602.17	54062.28
602.37	53173.46
602.57	53216.47
602.76	53687.50
602.96	53191.89
603.16	53673.16
603.36	53837.00
603.55	53841.10
603.75	53675.21
603.95	53695.69
604.15	53984.46
604.34	54170.82
604.54	54129.86
604.74	54002.89
604.94	54275.27
605.13	54287.56
605.33	54273.22
605.53	53658.83
605.73	54594.75
605.92	54375.62
606.12	54326.47
606.32	54459.58
606.52	54555.84
606.71	54613.18
606.91	55035.06
607.11	54183.11
607.30	54514.88
607.50	55198.90
607.70	55465.14
607.90	55178.42
608.09	55174.33
608.29	54666.43
608.49	55080.12
608.68	54619.33
608.88	54955.19
609.08	55039.16
609.28	55116.98
609.47	54961.34
609.67	55317.68
609.87	55153.85
610.06	55178.42
610.26	55426.23
610.46	55383.22
610.66	55366.84
610.85	55528.62
611.05	55055.54
611.25	55221.43
611.44	55104.70
611.64	55438.51
611.84	55235.77
612.03	55465.14
612.23	55497.91
612.43	55469.23
612.62	55219.38
612.82	55608.50
613.02	55596.21
613.21	55598.26
613.41	55342.26
613.61	55217.33
613.80	55487.67
614.00	55456.95
614.20	55803.05
614.39	55899.31
614.59	55352.50
614.79	55772.33
614.98	55723.18
615.18	55561.39
615.38	55446.71
615.57	55628.98
615.77	56224.93
615.97	55788.72
616.16	55975.08
616.36	55467.19
616.56	55858.35
616.75	55936.17
616.95	55334.07
617.15	55305.40
617.34	55547.06
617.54	55635.12
617.74	55831.72
617.93	55846.06
618.13	54865.08
618.32	55727.28
618.52	55407.79
618.72	55538.86
618.91	55794.86
619.11	55080.12
619.31	55686.32
619.50	55321.78
619.70	54736.06
619.90	55346.36
620.09	55237.81
620.29	55506.10
620.48	55155.89
620.68	55559.34
620.88	55016.63
621.07	55219.38
621.27	55448.75
621.46	55035.06
621.66	55264.44
621.86	55424.18
622.05	54752.44
622.25	55243.96
622.44	54865.08
622.64	54994.10
622.84	55346.36
623.03	55180.47
623.23	54676.67
623.42	54908.09
623.62	55514.29
623.82	55362.74
624.01	54617.28
624.21	55282.87
624.40	54949.05
624.60	54842.56
624.80	54828.22
624.99	55010.49
625.19	54557.89
625.38	55293.11
625.58	55129.27
625.77	54686.91
625.97	55000.25
626.17	54473.92
626.36	54860.99
626.56	54924.47
626.75	54514.88
626.95	55186.61
627.14	54443.20
627.34	55010.49
627.54	54588.61
627.73	54838.46
627.93	54891.71
628.12	54406.34
628.32	54887.61
628.51	54670.53
628.71	54650.05
628.90	54609.09
629.10	54629.57
629.30	54713.53
629.49	54703.29
629.69	54666.43
629.88	54711.49
630.08	54781.12
630.27	54824.12
630.47	54691.01
630.66	54416.58
630.86	55082.17
631.05	54490.30
631.25	55243.96
631.44	54787.26
631.64	54490.30
631.84	54365.38
632.03	54760.64
632.23	54961.34
632.42	55016.63
632.62	54678.72
632.81	54629.57
633.01	54529.22
633.20	54992.06
633.40	54592.70
633.59	54928.57
633.79	54195.40
633.98	54432.96
634.18	54770.88
634.37	54523.07
634.57	54682.81
634.76	55049.40
634.96	54533.31
635.15	54789.31
635.35	54645.95
635.54	54525.12
635.74	54903.99
635.93	54471.87
636.13	54727.87
636.32	54822.08
636.52	54625.47
636.71	54580.42
636.91	54670.53
637.10	54826.17
637.30	54365.38
637.49	54750.40
637.69	54392.00
637.88	55235.77
638.08	54631.61
638.27	55219.38
638.46	54541.50
638.66	54654.14
638.85	55049.40
639.05	55266.48
639.24	54715.58
639.44	54381.76
639.63	54854.84
639.83	54668.48
640.02	54959.29
640.22	55002.30
640.41	55225.53
640.61	54652.09
640.80	54867.13
640.99	54588.61
641.19	55475.38
641.38	54643.90
641.58	54932.67
641.77	54858.94
641.97	54842.56
642.16	54709.44
642.36	55243.96
642.55	55583.92
642.74	54322.37
642.94	55440.56
643.13	54738.11
643.33	54820.03
643.52	55444.66
643.72	55293.11
643.91	55667.89
644.10	55481.52
644.30	55506.10
644.49	55424.18
644.69	55428.27
644.88	54985.91
645.08	55078.07
645.27	54969.53
645.46	55125.17
645.66	55592.11
645.85	55094.46
646.05	55651.50
646.24	55694.51
646.43	55203.00
646.63	55784.62
646.82	55307.44
647.02	55970.99
647.21	55817.39
647.40	55743.66
647.60	55784.62
647.79	56165.54
647.99	55819.44
648.18	55538.86
648.37	55880.88
648.57	55901.36
648.76	55491.76
648.96	55932.07
649.15	56267.94
649.34	56382.63
649.54	55923.88
649.73	55915.69
649.92	56032.42
650.12	55755.95
650.31	55821.48
650.51	56063.14
650.70	56317.09
650.89	56382.63
651.09	56661.15
651.28	56405.16
651.47	56306.85
651.67	56247.46
651.86	56669.34
652.06	56171.69
652.25	56571.04
652.44	56403.11
652.64	56177.83
652.83	56304.80
653.02	56083.62
653.22	56657.06
653.41	56200.36
653.60	55762.09
653.80	56421.54
653.99	56487.07
654.18	56835.23
654.38	55878.83
654.57	56738.97
654.76	56628.38
654.96	56472.74
655.15	56356.00
655.34	56542.37
655.54	56476.83
655.73	56628.38
655.92	56935.58
656.12	56857.76
656.31	56947.87
656.50	57300.12
656.70	56755.36
656.89	56657.06
657.08	57099.42
657.28	56923.29
657.47	56964.25
657.66	57408.66
657.86	56863.90
658.05	56820.89
658.24	56890.52
658.43	56874.14
658.63	57267.35
658.82	57234.58
659.01	57164.95
659.21	57564.31
659.40	57253.01
659.59	56657.06
659.79	57265.30
659.98	57701.52
660.17	57111.70
660.36	57076.89
660.56	57240.73
660.75	57445.52
660.94	57285.78
661.14	57406.61
661.33	57506.96
661.52	57117.85
661.71	58127.50
661.91	57545.87
662.10	57218.20
662.29	57889.93
662.49	57631.89
662.68	57416.85
662.87	57855.12
663.06	57869.45
663.26	57423.00
663.45	58215.56
663.64	57390.23
663.83	58002.57
664.03	57904.27
664.22	58070.15
664.41	57668.75
664.60	57762.96
664.80	57781.39
664.99	57623.70
665.18	57580.69
665.37	57693.33
665.57	58074.25
665.76	57402.52
665.95	57539.73
666.14	57750.67
666.34	57896.08
666.53	57455.76
666.72	57558.16
666.91	57308.31
667.11	57982.09
667.30	57984.14
667.49	57988.24
667.68	57930.89
667.87	57832.59
668.07	57820.30
668.26	58016.91
668.45	57363.60
668.64	57402.52
668.84	58748.03
669.03	57926.80
669.22	58061.96
669.41	57910.41
669.60	57832.59
669.80	57957.52
669.99	58066.06
670.18	58031.24
670.37	57818.25
670.57	58197.13
670.76	57676.94
670.95	58168.46
671.14	57678.99
671.33	57889.93
671.53	58029.19
671.72	57826.45
671.91	58158.22
672.10	57662.61
672.29	57844.88
672.48	57924.75
672.68	58399.88
672.87	57988.24
673.06	57832.59
673.25	57832.59
673.44	57744.53
673.64	57650.32
673.83	57789.58
674.02	57635.98
674.21	56906.91
674.40	57881.74
674.59	57799.82
674.79	57789.58
674.98	57734.29
675.17	57705.62
675.36	57521.30
675.55	58266.76
675.74	57676.94
675.94	57920.65
676.13	58188.94
676.32	58123.40
676.51	58397.83
676.70	57865.36
676.89	57881.74
677.08	58188.94
677.28	57554.07
677.47	57701.52
677.66	57826.45
677.85	57429.14
678.04	57891.98
678.23	58090.63
678.42	58141.83
678.62	57767.05
678.81	57760.91
679.00	57189.53
679.19	58002.57
679.38	57732.24
679.57	57511.06
679.76	57775.25
679.96	57750.67
680.15	57722.00
680.34	57738.38
680.53	57523.35
680.72	57789.58
680.91	58221.70
681.10	57283.73
681.29	57887.88
681.48	57013.40
681.68	57570.45
681.87	57179.29
682.06	57214.10
682.25	57037.98
682.44	57248.92
682.63	57332.89
682.82	57074.84
683.01	57095.32
683.20	56859.80
683.39	57382.04
683.59	56833.18
683.78	56777.89
683.97	56763.55
684.16	56820.89
684.35	57064.60
684.54	57244.82
684.73	56718.49
684.92	56708.25
685.11	57185.43
685.30	56628.38
685.49	56906.91
685.69	57189.53
685.88	56892.57
686.07	57076.89
686.26	56568.99
686.45	56738.97
686.64	56751.26
686.83	56829.08
687.02	56665.25
687.21	56636.58
687.40	56941.72
687.59	56511.65
687.78	56245.41
687.97	56736.93
688.16	55940.27
688.35	56161.45
688.54	56358.05
688.74	56304.80
688.93	56145.06
689.12	55968.94
689.31	55915.69
689.50	56421.54
689.69	55921.83
689.88	56054.95
690.07	56140.97
690.26	55821.48
690.45	56128.68
690.64	55747.76
690.83	55424.18
691.02	55669.93
691.21	56091.82
691.40	55454.90
691.59	55850.16
691.78	55684.27
691.97	55514.29
692.16	55639.22
692.35	56057.00
692.54	56132.78
692.73	55938.22
692.92	55776.43
693.11	55690.41
693.30	55508.14
693.49	55549.10
693.68	55723.18
693.87	55262.39
694.06	55370.93
694.25	55102.65
694.44	54987.96
694.63	54891.71
694.82	55168.18
695.01	55100.60
695.20	54568.13
695.39	54832.32
695.58	55119.03
695.77	54809.79
695.96	54740.16
696.15	54820.03
696.34	54828.22
696.53	54502.59
696.72	55033.02
696.91	54680.77
697.10	54527.17
697.29	54359.23
697.48	55051.45
697.67	54750.40
697.86	53908.68
698.05	53867.72
698.24	54791.36
698.43	54041.80
698.62	54416.58
698.81	54086.85
699.00	54615.23
699.19	54017.22
699.38	54107.33
699.57	53744.84
699.76	55065.78
699.95	53703.88
700.14	54060.23
700.32	54236.36
700.51	53744.84
700.70	54314.18
700.89	53953.74
701.08	54019.27
701.27	53947.59
701.46	53920.97
701.65	53333.20
701.84	53966.02
702.03	53769.42
702.22	53734.60
702.41	53552.33
702.60	53796.04
702.79	52968.66
702.98	53425.36
703.17	53544.14
703.35	53052.63
703.54	53216.47
703.73	53339.35
703.92	53181.65
704.11	53488.85
704.30	53193.94
704.49	53163.22
704.68	53216.47
704.87	52890.84
705.06	53114.07
705.25	52989.14
705.43	52780.25
705.62	53241.04
705.81	53044.44
706.00	53069.01
706.19	52743.39
706.38	52661.47
706.57	52864.22
706.76	52702.43
706.95	52706.52
707.14	52405.47
707.32	52395.23
707.51	52028.65
707.70	52344.03
707.89	52823.26
708.08	52241.63
708.27	52520.16
708.46	52608.22
708.65	51997.93
708.84	52516.06
709.02	52544.73
709.21	52258.02
709.40	52161.76
709.59	52120.80
709.78	52331.75
709.97	52565.21
710.16	52067.56
710.34	51920.10
710.53	52200.68
710.72	51862.76
710.91	51674.35
711.10	51727.59
711.29	51827.95
711.48	51758.31
711.66	51541.23
711.85	51586.28
712.04	51967.21
712.23	51584.24
712.42	51551.47
712.61	51887.34
712.80	51684.59
712.98	51612.91
713.17	51340.53
713.36	51066.10
713.55	51746.03
713.74	51664.11
713.93	51559.66
714.11	51369.20
714.30	51459.31
714.49	50967.80
714.68	51487.98
714.87	51074.29
715.06	51481.84
715.24	51297.52
715.43	51082.48
715.62	51123.44
715.81	51199.22
716.00	51223.79
716.18	50767.10
716.37	50705.66
716.56	50621.69
716.75	51571.95
716.94	51006.71
717.12	50660.60
717.31	51102.96
717.50	50740.47
717.69	50795.77
717.88	51047.67
718.06	51082.48
718.25	51021.05
718.44	50324.74
718.63	50590.97
718.82	50361.60
719.00	50269.44
719.19	50402.56
719.38	50711.80
719.57	49949.96
719.76	49722.63
719.94	49937.67
720.13	49616.14
720.32	50013.44
720.51	50248.96
720.69	50083.08
720.88	49847.56
721.07	50076.93
721.26	49696.01
721.44	49560.84
721.63	49569.04
721.82	49335.57
722.01	49640.71
722.20	49374.48
722.38	49290.51
722.57	49083.67
722.76	49648.91
722.95	49116.43
723.13	48973.08
723.32	49216.78
723.51	48956.69
723.70	48889.11
723.88	48950.55
724.07	48915.73
724.26	49124.63
724.44	48354.59
724.63	49046.80
724.82	48741.66
725.01	48602.39
725.19	48774.42
725.38	48928.02
725.57	48123.17
725.76	48860.44
725.94	48395.55
726.13	48395.55
726.32	48682.27
726.51	48870.68
726.69	48706.84
726.88	49079.57
727.07	48407.84
727.25	48504.09
727.44	48549.15
727.63	48397.60
727.82	48420.13
728.00	48715.03
728.19	48487.71
728.38	49075.48
728.56	48344.35
728.75	49261.84
728.94	48727.32
729.12	48805.14
729.31	48774.42
729.50	48690.46
729.69	48674.07
729.87	48321.82
730.06	48327.97
730.25	48233.76
730.43	48755.99
730.62	48510.24
730.81	48547.10
730.99	48991.51
731.18	48448.80
731.37	48549.15
731.55	48684.31
731.74	49216.78
731.93	48571.67
732.11	48583.96
732.30	48694.55
732.49	48475.42
732.67	48755.99
732.86	48860.44
733.05	48721.18
733.23	48305.44
733.42	48581.91
733.61	48629.02
733.79	48319.77
733.98	48487.71
734.17	48813.34
734.35	48921.88
734.54	48547.10
734.73	48801.05
734.91	48878.87
735.10	48368.93
735.29	48739.61
735.47	48063.78
735.66	48770.33
735.84	48440.60
736.03	48182.56
736.22	48792.86
736.40	48327.97
736.59	48604.44
736.78	47973.67
736.96	48430.36
737.15	48385.31
737.33	48399.65
737.52	48424.22
737.71	48117.03
737.89	48514.33
738.08	47824.17
738.27	48272.67
738.45	48725.27
738.64	48502.04
738.82	48174.37
739.01	48305.44
739.20	48420.13
739.38	48133.41
739.57	48387.36
739.75	48135.46
739.94	47766.82
740.13	48229.66
740.31	47924.52
740.50	47985.96
740.68	47992.10
740.87	47887.65
741.06	47994.15
741.24	47940.90
741.43	47516.97
741.61	47910.18
741.80	47854.89
741.99	47871.27
742.17	48045.35
742.36	47994.15
742.54	47580.46
742.73	48178.46
742.91	47924.52
743.10	47555.88
743.29	48508.19
743.47	48092.45
743.66	47895.85
743.84	47967.52
744.03	48186.66
744.21	47699.24
744.40	47734.06
744.59	47428.91
744.77	47570.22
744.96	47396.14
745.14	47508.78
745.33	47377.71
745.51	47318.32
745.70	47666.47
745.88	47559.98
746.07	47527.21
746.26	47420.72
746.44	47023.41
746.63	47166.77
746.81	47514.92
747.00	46994.74
747.18	47611.18
747.37	47412.52
747.55	47449.39
747.74	47820.07
747.92	47121.71
748.11	47373.61
748.29	47387.95
748.48	47420.72
748.66	46828.85
748.85	47248.69
749.03	47144.24
749.22	47428.91
749.41	47078.71
749.59	46941.49
749.78	46990.64
749.96	46486.84
750.15	47148.34
750.33	46802.23
750.52	47095.09
750.70	46964.02
750.89	46816.57
751.07	46423.36
751.26	46673.21
751.44	46538.04
751.63	46748.98
751.81	46630.20
752.00	46619.96
752.18	46720.31
752.37	46859.57
752.55	46206.27
752.74	46181.70
752.92	46157.12
753.10	45954.37
753.29	46226.75
753.47	45860.16
753.66	46077.25
753.84	46220.61
754.03	46191.94
754.21	46124.35
754.40	46257.47
754.58	46185.79
754.77	46191.94
754.95	45565.26
755.14	45907.27
755.32	46320.96
755.51	45565.26
755.69	45698.37
755.88	45702.47
756.06	46241.09
756.24	45614.41
756.43	45858.12
756.61	45819.20
756.80	45598.02
756.98	45217.10
757.17	45346.12
757.35	45700.42
757.54	45090.13
757.72	46060.87
757.90	45688.13
758.09	44897.62
758.27	45133.14
758.46	44918.10
758.64	45028.69
758.83	45679.94
759.01	44889.43
759.19	45268.30
759.38	45184.33
759.56	45489.48
759.75	45118.80
759.93	45155.66
760.12	44821.84
760.30	44916.05
760.48	44995.92
760.67	44817.75
760.85	45077.84
761.04	44623.19
761.22	45165.90
761.40	45176.14
761.59	44926.29
761.77	44684.63
761.96	44746.07
762.14	44219.74
762.32	44545.37
762.51	44180.83
762.69	44668.25
762.88	44451.16
763.06	44168.54
763.24	44701.01
763.43	44653.91
763.61	44105.06
763.80	44432.73
763.98	43853.15
764.16	43967.84
764.35	44039.52
764.53	43492.71
764.72	43754.85
764.90	43832.68
765.08	43588.97
765.27	43799.91
765.45	43599.21
765.63	43611.49
765.82	43636.07
766.00	43263.34
766.18	43525.48
766.37	43570.54
766.55	43804.00
766.74	43269.48
766.92	43435.37
767.10	43453.80
767.29	43279.72
767.47	42626.42
767.65	43101.55
767.84	42923.38
768.02	43146.61
768.20	42816.88
768.39	42833.27
768.57	42757.49
768.75	42820.98
768.94	43144.56
769.12	42710.39
769.30	42640.76
769.49	42630.52
769.67	42257.79
769.85	42245.50
770.04	42861.94
770.22	42358.14
770.40	42356.09
770.59	42280.31
770.77	42530.17
770.95	42564.98
771.14	42163.58
771.32	41944.45
771.50	41901.44
771.69	41368.97
771.87	42075.52
772.05	41940.35
772.24	41731.46
772.42	41835.91
772.60	41592.20
772.78	41356.68
772.97	41833.86
773.15	42139.00
773.33	41620.87
773.52	41565.57
773.70	41602.44
773.88	41887.10
774.07	41557.38
774.25	41153.93
774.43	41762.18
774.61	42265.98
774.80	41723.27
774.98	41471.37
775.16	41362.82
775.34	41753.99
775.53	41104.78
775.71	41432.46
775.89	41645.44
776.08	41115.02
776.26	41225.61
776.44	41379.21
776.62	41377.16
776.81	41014.67
776.99	41686.40
777.17	41297.29
777.35	41653.64
777.54	41825.67
777.72	41381.26
777.90	41702.79
778.08	41299.34
778.27	41590.15
778.45	41618.82
778.63	41694.60
778.81	41274.76
779.00	41745.80
779.18	41088.40
779.36	41923.97
779.54	41725.32
779.73	41977.22
779.91	42075.52
780.09	41883.01
780.27	41909.63
780.46	41911.68
780.64	42157.44
780.82	41393.54
781.00	41733.51
781.19	41698.69
781.37	41815.43
781.55	41862.53
781.73	42243.45
781.91	42216.83
782.10	42096.00
782.28	42171.77
782.46	42030.46
782.64	41895.30
782.82	41985.41
783.01	42093.95
783.19	42050.94
783.37	42481.02
783.55	41866.63
783.74	42149.24
783.92	41702.79
784.10	42263.93
784.28	42245.50
784.46	41776.51
784.64	41649.54
784.83	41872.77
785.01	42495.35
785.19	41446.79
785.37	41897.34
785.55	42096.00
785.74	41037.20
785.92	41600.39
786.10	41715.08
786.28	41860.48
786.46	41524.61
786.64	41186.70
786.83	41096.59
787.01	41211.28
787.19	41526.66
787.37	41207.18
787.55	41317.77
787.74	40852.88
787.92	41143.69
788.10	41112.97
788.28	40854.93
788.46	41346.44
788.64	40846.74
788.82	41317.77
789.01	40658.32
789.19	40957.33
789.37	40680.85
789.55	40598.93
789.73	40431.00
789.91	40439.19
790.09	40318.36
790.28	40318.36
790.46	40271.26
790.64	40347.03
790.82	40193.43
791.00	39878.05
791.18	39798.18
791.36	39538.08
791.55	39951.77
791.73	39867.81
791.91	40009.12
792.09	39886.24
792.27	39546.28
792.45	39697.83
792.63	39822.75
792.81	39900.58
793.00	39490.98
793.18	39574.95
793.36	39376.30
793.54	39435.69
793.72	39198.12
793.90	38915.50
794.08	38811.06
794.26	39081.39
794.44	38575.54
794.62	38530.48
794.81	38585.78
794.99	38516.15
795.17	38555.06
795.35	38331.83
795.53	38403.51
795.71	38352.31
795.89	38170.04
796.07	37955.00
796.25	37860.80
796.43	38110.65
796.61	37574.08
796.80	37422.53
796.98	37635.52
797.16	37504.45
797.34	37547.46
797.52	37359.05
797.70	37291.46
797.88	36943.31
798.06	36914.64
798.24	37035.47
798.42	36986.32
798.60	36941.26
798.78	36851.15
798.96	36834.77
799.14	36443.60
799.32	36791.76
799.51	36408.79
799.69	36562.39
799.87	36302.29
800.05	36443.60
800.23	36316.63
800.41	36247.00
800.59	36120.02
800.77	36111.83
800.95	35591.65
801.13	35784.16
801.31	35636.70
801.49	35958.24
801.67	35278.31
801.85	35460.58
802.03	35546.59
802.21	35497.44
802.39	35022.31
802.57	35042.79
802.75	35145.19
802.93	35153.38
803.11	35093.99
803.29	35120.62
803.47	34831.85
803.65	34555.38
803.83	34235.89
804.01	34764.27
804.19	34352.63
804.37	34156.02
804.55	34203.13
804.73	34205.17
804.91	34418.16
805.09	34113.02
805.27	33883.64
805.45	34194.93
805.63	34022.90
805.81	33805.82
805.99	33738.24
806.17	33871.36
806.35	33883.64
806.53	33768.96
806.71	33469.95
806.89	33201.67
807.07	33064.46
807.25	33623.55
807.43	33451.52
807.61	33521.15
807.79	32898.57
807.97	32712.20
808.15	33039.88
808.33	32693.77
808.51	32781.84
808.69	32851.47
808.87	32658.96
809.05	32574.99
809.23	32673.29
809.41	32359.95
809.59	32601.61
809.77	32728.59
809.95	32038.42
810.13	32427.54
810.31	31800.86
810.49	32081.43
810.67	32241.17
810.84	31991.32
811.02	31739.42
811.20	32022.04
811.38	32122.39
811.56	31673.88
811.74	31669.79
811.92	31585.82
812.10	31755.80
812.28	31794.71
812.46	31467.04
812.64	31501.86
812.82	31043.11
813.00	31325.73
813.18	31471.14
813.36	31135.27
813.53	30985.77
813.71	31325.73
813.89	30770.73
814.07	31004.20
814.25	30869.03
814.43	30909.99
814.61	30756.39
814.79	30613.04
814.97	30500.40
815.15	30748.20
815.33	30459.44
815.50	30475.82
815.68	30668.33
815.86	30697.00
816.04	30205.49
816.22	30508.59
816.40	30547.50
816.58	30281.27
816.76	30207.54
816.94	29972.02
817.11	29992.50
817.29	30232.11
817.47	29990.45
817.65	29597.24
817.83	30305.84
818.01	29795.90
818.19	29529.66
818.37	29812.28
818.54	29752.89
818.72	29632.06
818.90	29396.54
819.08	29625.92
819.26	29892.15
819.44	29697.59
819.62	29556.28
819.80	29380.16
819.97	29419.07
820.15	29396.54
820.33	29328.96
820.51	29355.58
820.69	29007.43
820.87	29345.34
821.05	29496.89
821.22	29249.09
821.40	28950.09
821.58	29056.58
821.76	28929.61
821.94	28902.98
822.12	28792.39
822.29	29011.53
822.47	28624.46
822.65	29025.86
822.83	28567.12
823.01	28626.51
823.19	28454.48
823.36	28386.89
823.54	28509.77
823.72	28558.92
823.90	28311.12
824.08	27967.06
824.25	28268.11
824.43	28190.29
824.61	27942.49
824.79	28261.97
824.97	28044.88
825.15	28030.55
825.32	27977.30
825.50	27846.23
825.68	27932.25
825.86	28091.99
826.04	28386.89
826.21	27985.49
826.39	28194.39
826.57	27727.45
826.75	27858.52
826.93	27813.46
827.10	27600.47
827.28	27737.69
827.46	28112.47
827.64	27962.97
827.81	27631.19
827.99	27483.74
828.17	27350.62
828.35	27334.24
828.53	27420.25
828.70	27108.96
828.88	27493.98
829.06	27487.84
829.24	27493.98
829.41	27242.08
829.59	27352.67
829.77	27180.64
829.95	27184.74
830.12	27258.46
830.30	27338.33
830.48	27305.57
830.66	27285.09
830.84	27215.46
831.01	26965.60
831.19	26787.43
831.37	27240.03
831.55	26807.91
831.72	26859.11
831.90	26789.48
832.08	26582.63
832.25	26779.24
832.43	26691.18
832.61	26799.72
832.79	26519.15
832.96	26850.92
833.14	26482.28
833.32	26805.86
833.50	26668.65
833.67	26680.94
833.85	26695.27
834.03	26582.63
834.20	26777.19
834.38	26662.51
834.56	26599.02
834.74	26449.52
834.91	26257.01
835.09	26582.63
835.27	26324.59
835.44	26375.79
835.62	25929.33
835.80	25955.96
835.98	26152.56
836.15	26185.33
836.33	26115.70
836.51	26222.19
836.68	25884.28
836.86	26044.02
837.04	25941.62
837.21	25910.90
837.39	26107.51
837.57	26080.88
837.75	26021.49
837.92	25589.37
838.10	25376.38
838.28	25618.04
838.45	25335.42
838.63	25527.93
838.81	25798.26
838.98	25546.36
839.16	25507.45
839.34	25390.72
839.51	25585.27
839.69	25269.89
839.87	25495.16
840.04	25552.51
840.22	25691.77
840.40	25454.20
840.57	25173.63
840.75	25245.31
840.93	25020.03
841.10	25142.91
841.28	25593.47
841.46	25253.50
841.63	25491.07
841.81	25343.61
841.98	24915.59
842.16	25308.80
842.34	25104.00
842.51	25124.48
842.69	25331.33
842.87	25036.42
843.04	25380.48
843.22	24727.17
843.40	25024.13
843.57	24755.85
843.75	24749.70
843.92	25329.28
844.10	24800.90
844.28	24841.86
844.45	24809.09
844.63	24690.31
844.81	24829.57
844.98	24751.75
845.16	24616.58
845.33	24710.79
845.51	24536.71
845.69	24473.23
845.86	24479.37
846.04	24540.81
846.21	24440.46
846.39	24452.75
846.57	24438.41
846.74	24485.51
846.92	24145.55
847.09	24325.77
847.27	24417.93
847.45	24096.40
847.62	24710.79
847.80	24368.78
847.97	24436.36
848.15	23950.99
848.32	24008.34
848.50	23946.90
848.68	23621.27
848.85	24143.50
849.03	23535.26
849.20	24063.63
849.38	23606.94
849.56	23918.23
849.73	23858.84
849.91	24010.39
850.08	24012.43
850.26	23271.07
850.43	23815.83
850.61	23916.18
850.78	23635.61
850.96	23795.35
851.14	23561.88
851.31	23828.12
851.49	23527.06
851.66	23846.55
851.84	23670.42
852.01	23531.16
852.19	23443.10
852.36	23570.07
852.54	23299.74
852.71	23383.71
852.89	23574.17
853.07	23469.72
853.24	23238.30
853.42	23516.83
853.59	23463.58
853.77	23185.05
853.94	23260.83
854.12	23590.55
854.29	22865.57
854.47	23381.66
854.64	23076.51
854.82	23064.22
854.99	23195.29
855.17	23158.43
855.34	23082.66
855.52	22896.29
855.69	22953.63
855.87	22689.45
856.04	22638.25
856.22	22716.07
856.39	22832.80
856.57	22916.77
856.74	22754.98
856.92	22841.00
857.09	22691.49
857.27	22300.33
857.44	22922.91
857.62	22814.37
857.79	22697.64
857.97	22599.34
858.14	22591.14
858.32	22654.63
858.49	22236.84
858.67	22384.30
858.84	22197.93
859.02	22466.22
859.19	22455.98
859.37	22335.15
859.54	22398.63
859.72	22515.37
859.89	22343.34
860.06	22253.23
860.24	22111.92
860.41	22245.04
860.59	21980.85
860.76	22230.70
860.94	21927.60
861.11	22179.50
861.29	22075.06
861.46	22103.73
861.64	21870.26
861.81	21812.92
861.98	22138.54
862.16	21710.52
862.33	21733.04
862.51	21790.39
862.68	21687.99
862.86	21759.67
863.03	21597.88
863.21	21722.80
863.38	21446.33
863.55	21604.02
863.73	21577.40
863.90	21638.84
864.08	21448.38
864.25	21302.97
864.43	21622.45
864.60	21348.03
864.77	21268.16
864.95	21475.00
865.12	21335.74
865.30	21243.58
865.47	21337.79
865.64	21137.09
865.82	21450.42
865.99	21434.04
866.17	21089.98
866.34	21472.95
866.51	20887.23
866.69	21055.17
866.86	21284.54
867.04	20827.84
867.21	21114.56
867.38	20799.17
867.56	20676.29
867.73	20510.41
867.91	21008.06
868.08	20580.04
868.25	20815.55
868.43	20674.24
868.60	20833.99
868.78	20477.64
868.95	20995.78
869.12	20729.54
869.30	20487.88
869.47	20641.48
869.64	20522.69
869.82	20623.05
869.99	20278.99
870.16	20416.20
870.34	20446.92
870.51	20459.21
870.69	20430.54
870.86	20250.32
871.03	20274.89
871.21	20186.83
871.38	20152.01
871.55	20057.81
871.73	19977.94
871.90	19969.74
872.07	19773.14
872.25	19902.16
872.42	19926.74
872.59	19775.19
872.77	19642.07
872.94	19730.13
873.11	19881.68
873.29	19961.55
873.46	19511.00
873.63	19670.74
873.81	19687.12
873.98	19185.37
874.15	19619.54
874.33	19308.25
874.50	19160.80
874.67	19355.35
874.85	19609.30
875.02	19406.55
875.19	19304.15
875.37	19211.99
875.54	19148.51
875.71	19324.63
875.88	18951.90
876.06	18917.09
876.23	18904.80
876.40	18826.98
876.58	19035.87
876.75	18685.67
876.92	18738.91
877.10	18775.78
877.27	18706.15
877.44	18474.73
877.61	18599.65
877.79	18679.52
877.96	18421.48
878.13	18474.73
878.31	18265.83
878.48	18540.26
878.65	18446.05
878.82	18657.00
879.00	18550.50
879.17	18243.31
879.34	18280.17
879.51	18183.91
879.69	18124.52
879.86	18003.69
880.03	17997.55
880.21	17917.68
880.38	18063.08
880.55	18085.61
880.72	17891.06
880.90	18030.32
881.07	17905.39
881.24	17870.58
881.41	17704.69
881.59	17716.98
881.76	17579.76
881.93	17673.97
882.10	17800.94
882.28	17512.18
882.45	17723.12
882.62	17549.04
882.79	17428.21
882.96	17258.23
883.14	17755.89
883.31	17477.37
883.48	17590.00
883.65	17391.35
883.83	17647.35
884.00	17624.82
884.17	17301.24
884.34	17628.92
884.51	17383.16
884.69	17348.34
884.86	17262.33
885.03	17387.25
885.20	17055.48
885.38	17121.02
885.55	17127.16
885.72	17080.06
885.89	17129.21
886.06	17372.92
886.24	17178.36
886.41	17198.84
886.58	17231.61
886.75	17250.04
886.92	16824.06
887.10	17047.29
887.27	16822.02
887.44	16899.84
887.61	17155.83
887.78	16928.51
887.95	16809.73
888.13	16715.52
888.30	16584.45
888.47	16668.42
888.64	16574.21
888.81	16725.76
888.99	16627.46
889.16	16539.40
889.33	16561.92
889.50	16459.52
889.67	16391.94
889.84	16498.44
890.01	16555.78
890.19	16424.71
890.36	16535.30
890.53	16316.17
890.70	16271.11
890.87	16254.73
891.04	16117.51
891.22	16150.28
891.39	16197.38
891.56	15994.64
891.73	15992.59
891.90	16211.72
892.07	15761.17
892.24	15904.53
892.42	15974.16
892.59	16054.03
892.76	16035.60
892.93	15894.29
893.10	15847.18
893.27	15841.04
893.44	15738.64
893.61	15734.54
893.79	16092.94
893.96	15861.52
894.13	15988.49
894.30	15726.35
894.47	15888.14
894.64	15861.52
894.81	15554.32
894.98	15859.47
895.15	15640.34
895.33	15697.68
895.50	15759.12
895.67	15462.16
895.84	15425.30
896.01	15535.89
896.18	15572.75
896.35	15892.24
896.52	15363.86
896.69	15585.04
896.86	15386.39
897.04	15615.76
897.21	15529.75
897.38	15296.28
897.55	15666.96
897.72	15783.70
897.89	15615.76
898.06	15644.43
898.23	15261.46
898.40	15634.19
898.57	15515.41
898.74	15580.95
898.91	15392.53
899.08	15478.55
899.26	15486.74
899.43	15396.63
899.60	15482.64
899.77	15337.24
899.94	15202.07
900.11	15224.60
900.28	15419.16
900.45	15425.30
900.62	15333.14
900.79	15578.90
900.96	15339.29
901.13	15548.18
901.30	15312.66
901.47	15290.13
901.64	15339.29
901.81	15367.96
901.98	15015.71
902.15	15527.70
902.32	15173.40
902.49	15468.31
902.66	15351.57
902.83	15214.36
903.01	15132.44
903.18	15157.02
903.35	15273.75
903.52	15183.64
903.69	15265.56
903.86	15380.25
904.03	15314.71
904.20	15441.68
904.37	15347.48
904.54	15402.77
904.71	15279.89
904.88	15419.16
905.05	15240.98
905.22	15050.52
905.39	15073.05
905.56	15150.87
905.73	15089.43
905.90	15165.21
906.07	15220.50
906.24	15267.61
906.41	15148.82
906.58	15253.27
906.75	15003.42
906.92	15263.51
907.09	15183.64
907.26	15208.22
907.43	15101.72
907.60	14964.51
907.77	15146.78
907.93	15232.79
908.10	14950.17
908.27	15279.89
908.44	15013.66
908.61	15159.06
908.78	14964.51
908.95	15032.09
909.12	14946.08
909.29	14962.46
909.46	14970.65
909.63	14792.48
909.80	14941.98
909.97	14792.48
910.14	14890.78
910.31	14937.88
910.48	14831.39
910.65	14788.38
910.82	14769.95
910.99	14810.91
911.16	14751.52
911.33	14774.05
911.50	14774.05
911.66	14671.65
911.83	14704.42
912.00	14655.26
912.17	14552.87
912.34	14454.56
912.51	14604.07
912.68	14419.75
912.85	14485.28
913.02	14698.27
913.19	14589.73
913.36	14630.69
913.53	14692.13
913.70	14522.15
913.86	14591.78
914.03	14257.96
914.20	14524.19
914.37	14485.28
914.54	14282.53
914.71	14634.78
914.88	14247.72
915.05	14090.02
915.22	14133.03
915.39	14083.88
915.55	13997.87
915.72	13993.77
915.89	13971.24
916.06	14042.92
916.23	13979.43
916.40	13950.76
916.57	13696.82
916.74	13834.03
916.91	13883.18
917.07	13588.27
917.24	13621.04
917.41	13836.08
917.58	13684.53
917.75	13600.56
917.92	13489.97
918.09	13551.41
918.26	13645.62
918.42	13604.66
918.59	13489.97
918.76	13334.32
918.93	13373.24
919.10	13350.71
919.27	13242.17
919.44	13434.68
919.60	13469.49
919.77	13184.82
919.94	13203.25
920.11	13045.56
920.28	13227.83
920.45	12955.45
920.61	12857.15
920.78	12975.93
920.95	12734.27
921.12	12980.03
921.29	12955.45
921.46	12771.13
921.62	12685.12
921.79	12681.02
921.96	12697.41
922.13	12508.99
922.30	12408.64
922.47	12420.93
922.63	12476.23
922.80	12439.36
922.97	12203.85
923.14	11910.99
923.31	12377.92
923.47	11945.80
923.64	12379.97
923.81	12169.03
923.98	12068.68
924.15	11972.43
924.32	12171.08
924.48	12185.41
924.65	11929.42
924.82	12027.72
924.99	11896.65
925.15	11786.06
925.32	12056.39
925.49	11636.56
925.66	11784.01
925.83	11505.49
925.99	11444.05
926.16	11634.51
926.33	11652.94
926.50	11442.00
926.67	11652.94
926.83	11411.28
927.00	11384.66
927.17	11435.86
927.34	11265.88
927.50	11515.73
927.67	11548.50
927.84	11306.84
928.01	11282.26
928.17	11140.95
928.34	11091.80
928.51	10997.59
928.68	10772.32
928.84	10848.09
929.01	10465.12
929.18	10590.05
929.35	10719.07
929.51	10690.40
929.68	10747.74
929.85	10538.85
930.02	10563.42
930.18	10461.02
930.35	10579.81
930.52	10532.70
930.69	10307.43
930.85	10069.86
931.02	10305.38
931.19	10346.34
931.36	10065.77
931.52	10125.16
931.69	10254.18
931.86	10170.21
932.02	10162.02
932.19	9981.80
932.36	10037.09
932.53	9893.74
932.69	9912.17
932.86	9838.44
933.03	9817.96
933.19	9492.34
933.36	9682.80
933.53	9758.57
933.70	9334.64
933.86	9547.63
934.03	9463.66
934.20	9441.14
934.36	9693.04
934.53	9443.18
934.70	9262.96
934.86	9092.98
935.03	9017.21
935.20	9033.59
935.36	8992.63
935.53	8783.74
935.70	8748.92
935.86	8900.47
936.03	8720.25
936.20	8421.25
936.36	8488.83
936.53	8597.37
936.70	8404.86
936.86	8437.63
937.03	8171.40
937.20	8355.71
937.36	8288.13
937.53	7813.00
937.70	7929.74
937.86	7862.15
938.03	7946.12
938.20	7886.73
938.36	7692.17
938.53	7561.10
938.70	7319.44
938.86	7481.23
939.03	7264.15
939.20	7339.92
939.36	7210.90
939.53	7180.18
939.70	7190.42
939.86	6975.38
940.03	6803.35
940.19	6895.51
940.36	6672.28
940.53	6838.17
940.69	6653.85
940.86	6514.59
941.03	6369.18
941.19	6270.88
941.36	6449.05
941.52	6334.37
941.69	6164.39
941.86	6246.30
942.02	6174.63
942.19	6217.63
942.35	6238.11
942.52	5980.07
942.69	5943.21
942.85	5906.34
943.02	5797.80
943.18	5861.29
943.35	5832.62
943.52	5769.13
943.68	5816.23
943.85	5787.56
944.01	5509.04
944.18	5490.60
944.35	5717.93
944.51	5525.42
944.68	5380.01
944.84	5439.40
945.01	5349.29
945.17	5586.86
945.34	5416.88
945.51	5472.17
945.67	5392.30
945.84	5476.27
946.00	5214.13
946.17	5367.73
946.33	5279.66
946.50	5205.94
946.67	5269.42
946.83	5240.75
947.00	5326.77
947.16	5402.54
947.33	5232.56
947.49	5316.53
947.66	5154.74
947.82	5343.15
947.99	5242.80
948.16	5263.28
948.32	5287.86
948.49	5220.27
948.65	5402.54
948.82	5308.34
948.98	5169.07
949.15	5083.06
949.31	5091.25
949.48	5230.51
949.64	5222.32
949.81	5255.09
949.97	5234.61
950.14	5349.29
950.30	5228.46
950.47	5339.05
950.63	5179.31
950.80	5341.10
950.96	5207.98
951.13	5328.81
951.30	5402.54
951.46	5341.10
951.63	5533.61
951.79	5502.89
951.96	5404.59
952.12	5425.07
952.29	5451.69
952.45	5253.04
952.62	5476.27
952.78	5425.07
952.94	5390.25
953.11	5420.97
953.27	5334.96
953.44	5504.94
953.60	5306.29
953.77	5486.51
953.93	5316.53
954.10	5326.77
954.26	5375.92
954.43	5463.98
954.59	5400.49
954.76	5541.80
954.92	5414.83
955.09	5511.08
955.25	5402.54
955.42	5478.32
955.58	5593.00
955.75	5525.42
955.91	5441.45
956.07	5474.22
956.24	5363.63
956.40	5494.70
956.57	5472.17
956.73	5490.60
956.90	5568.43
957.06	5445.55
957.23	5486.51
957.39	5484.46
957.56	5590.95
957.72	5412.78
957.88	5365.68
958.05	5480.36
958.21	5713.83
958.38	5406.64
958.54	5398.45
958.71	5650.35
958.87	5455.79
959.03	5423.02
959.20	5392.30
959.36	5369.77
959.53	5349.29
959.69	5461.93
959.85	5513.13
960.02	5324.72
960.18	5572.52
960.35	5484.46
960.51	5447.60
960.68	5463.98
960.84	5463.98
961.00	5443.50
961.17	5515.18
961.33	5527.47
961.50	5398.45
961.66	5447.60
961.82	5449.64
961.99	5523.37
962.15	5373.87
962.31	5443.50
962.48	5494.70
962.64	5498.80
962.81	5375.92
962.97	5367.73
963.13	5525.42
963.30	5390.25
963.46	5367.73
963.62	5414.83
963.79	5431.21
963.95	5318.57
964.12	5451.69
964.28	5396.40
964.44	5150.64
964.61	5404.59
964.77	5431.21
964.93	5326.77
965.10	5441.45
965.26	5349.29
965.42	5377.97
965.59	5486.51
965.75	5287.86
965.92	5447.60
966.08	5390.25
966.24	5355.44
966.41	5312.43
966.57	5296.05
966.73	5330.86
966.90	5357.49
967.06	5265.33
967.22	5130.16
967.39	5160.88
967.55	5234.61
967.71	5236.66
967.88	5234.61
968.04	5134.26
968.20	5113.78
968.37	5257.14
968.53	5205.94
968.69	5111.73
968.85	5326.77
969.02	5146.55
969.18	5218.22
969.34	5076.91
969.51	5320.62
969.67	5250.99
969.83	5146.55
970.00	5273.52
970.16	5175.22
970.32	5009.33
970.48	5226.42
970.65	5179.31
970.81	4972.47
970.97	5040.05
971.14	5078.96
971.30	5181.36
971.46	4992.95
971.63	4980.66
971.79	5185.46
971.95	5087.15
972.11	5072.82
972.28	4995.00
972.44	5009.33
972.60	4941.75
972.76	4845.49
972.93	4898.74
973.09	4997.04
973.25	5058.48
973.42	4919.22
973.58	4964.28
973.74	4972.47
973.90	4990.90
974.07	4839.35
974.23	4870.07
974.39	4896.69
974.55	4865.97
974.72	4853.69
974.88	4728.76
975.04	4872.12
975.20	4960.18
975.37	4863.93
975.53	4814.77
975.69	4888.50
975.85	4769.72
976.01	4712.38
976.18	4923.32
976.34	4908.98
976.50	4822.97
976.66	4806.58
976.83	4747.19
976.99	4659.13
977.15	4698.04
977.31	4634.55
977.47	4743.10
977.64	4630.46
977.80	4659.13
977.96	4644.79
978.12	4616.12
978.29	4620.22
978.45	4650.94
978.61	4544.44
978.77	4837.30
978.93	4652.98
979.10	4616.12
979.26	4593.59
979.42	4693.94
979.58	4552.63
979.74	4550.59
979.91	4618.17
980.07	4429.76
980.23	4409.28
980.39	4507.58
980.55	4374.46
980.71	4437.95
980.88	4345.79
981.04	4507.58
981.20	4427.71
981.36	4464.57
981.52	4437.95
981.68	4325.31
981.85	4415.42
982.01	4364.22
982.17	4335.55
982.33	4472.76
982.49	4515.77
982.65	4331.45
982.82	4360.13
982.98	4444.09
983.14	4247.49
983.30	4358.08
983.46	4460.48
983.62	4245.44
983.79	4247.49
983.95	4249.54
984.11	4241.34
984.27	4284.35
984.43	4329.41
984.59	4274.11
984.75	4290.49
984.91	4212.67
985.08	4440.00
985.24	4020.16
985.40	4212.67
985.56	4091.84
985.72	4216.77
985.88	4276.16
986.04	4100.03
986.20	4093.89
986.37	4224.96
986.53	4114.37
986.69	4210.62
986.85	3987.40
987.01	3968.96
987.17	4245.44
987.33	4089.79
987.49	3989.44
987.65	4114.37
987.82	4042.69
987.98	3917.76
988.14	4050.88
988.30	3991.49
988.46	4036.55
988.62	4100.03
988.78	3968.96
988.94	3975.11
989.10	3954.63
989.26	3991.49
989.42	3909.57
989.59	3854.28
989.75	3833.80
989.91	4020.16
990.07	3723.21
990.23	3895.24
990.39	3858.37
990.55	3944.39
990.71	3733.45
990.87	3710.92
991.03	3766.21
991.19	3841.99
991.35	3805.13
991.51	3915.72
991.67	3846.09
991.83	3760.07
992.00	3831.75
992.16	3907.52
992.32	3841.99
992.48	3768.26
992.64	3725.26
992.80	3778.50
992.96	3729.35
993.12	3717.06
993.28	3825.61
993.44	3737.54
993.60	3803.08
993.76	3657.67
993.92	3774.41
994.08	3633.10
994.24	3747.78
994.40	3663.82
994.56	3674.06
994.72	3573.71
994.88	3639.24
995.04	3641.29
995.20	3692.49
995.36	3635.14
995.52	3659.72
995.68	3596.23
995.84	3504.07
996.00	3692.49
996.16	3461.07
996.32	3491.79
996.48	3540.94
996.64	3592.14
996.80	3475.40
996.96	3504.07
997.12	3483.59
997.28	3471.31
997.44	3356.62
997.60	3420.11
997.76	3403.72
997.92	3379.15
998.08	3442.64
998.24	3356.62
998.40	3493.83
998.56	3418.06
998.72	3395.53
998.88	3321.81
999.04	3256.27
999.20	3448.78
999.36	3213.26
999.52	3479.50
999.68	3370.96
999.84	3477.45
1000.00	3291.09
1000.16	3387.34
1000.32	3268.56
1000.48	3469.26
1000.64	3198.93
1000.80	3223.50
1000.95	3207.12
1001.11	3278.80
1001.27	3264.46
1001.43	3291.09
1001.59	3229.65
1001.75	3227.60
1001.91	3276.75
1002.07	3227.60
1002.23	3233.74
1002.39	3164.11
1002.55	3239.89
1002.71	3211.22
1002.87	3293.13
1003.03	3129.30
1003.19	3055.57
1003.34	3207.12
1003.50	3166.16
1003.66	3164.11
1003.82	3143.63
1003.98	3164.11
1004.14	3000.27
1004.30	3108.82
1004.46	3012.56
1004.62	3088.34
1004.78	3102.67
1004.94	3155.92
1005.09	3108.82
1005.25	3076.05
1005.41	3063.76
1005.57	3096.53
1005.73	3067.86
1005.89	3076.05
1006.05	3098.58
1006.21	3104.72
1006.37	2930.64
1006.52	2996.18
1006.68	2957.27
1006.84	2940.88
1007.00	2912.21
1007.16	3016.66
1007.32	2912.21
1007.48	2916.31
1007.64	2959.31
1007.79	2961.36
1007.95	2727.89
1008.11	2994.13
1008.27	2942.93
1008.43	2998.23
1008.59	2869.20
1008.75	2938.84
1008.91	2875.35
1009.06	2846.68
1009.22	2912.21
1009.38	2869.20
1009.54	2893.78
1009.70	2668.50
1009.86	2861.01
1010.01	2928.60
1010.17	2815.96
1010.33	2850.77
1010.49	2770.90
1010.65	2924.50
1010.81	2787.29
1010.96	2723.80
1011.12	2725.85
1011.28	2729.94
1011.44	2697.17
1011.60	2750.42
1011.76	2701.27
1011.91	2785.24
1012.07	2648.02
1012.23	2633.69
1012.39	2779.09
1012.55	2691.03
1012.71	2727.89
1012.86	2731.99
1013.02	2746.33
1013.18	2619.35
1013.34	2660.31
1013.50	2721.75
1013.65	2746.33
1013.81	2590.68
1013.97	2662.36
1014.13	2539.48
1014.29	2602.97
1014.44	2707.41
1014.60	2637.78
1014.76	2635.74
1014.92	2586.58
1015.07	2721.75
1015.23	2551.77
1015.39	2580.44
1015.55	2535.39
1015.71	2537.43
1015.86	2637.78
1016.02	2510.81
1016.18	2543.58
1016.34	2529.24
1016.49	2535.39
1016.65	2662.36
1016.81	2512.86
1016.97	2490.33
1017.12	2516.95
1017.28	2508.76
1017.44	2424.80
1017.60	2506.71
1017.75	2404.32
1017.91	2441.18
1018.07	2480.09
1018.23	2555.86
1018.38	2441.18
1018.54	2389.98
1018.70	2398.17
1018.86	2465.75
1019.01	2449.37
1019.17	2408.41
1019.33	2473.95
1019.49	2492.38
1019.64	2465.75
1019.80	2422.75
1019.96	2410.46
1020.12	2383.84
1020.27	2377.69
1020.43	2338.78
1020.59	2430.94
1020.74	2445.27
1020.90	2471.90
1021.06	2279.39
1021.22	2387.93
1021.37	2318.30
1021.53	2373.60
1021.69	2375.64
1021.84	2244.57
1022.00	2336.73
1022.16	2275.29
1022.31	2361.31
1022.47	2385.88
1022.63	2346.97
1022.79	2220.00
1022.94	2332.64
1023.10	2351.07
1023.26	2330.59
1023.41	2287.58
1023.57	2248.67
1023.73	2338.78
1023.88	2297.82
1024.04	2252.77
1024.20	2199.52
1024.35	2211.81
1024.51	2226.14
1024.67	2224.09
1024.82	2363.36
1024.98	2195.42
1025.14	2176.99
1025.29	2316.25
1025.45	2265.05
1025.61	2107.36
1025.76	2252.77
1025.92	2220.00
1026.08	2320.35
1026.23	2238.43
1026.39	2228.19
1026.55	2217.95
1026.70	2234.33
1026.86	2238.43
1027.02	2289.63
1027.17	2176.99
1027.33	2240.48
1027.48	2187.23
1027.64	2152.42
1027.80	2222.05
1027.95	2250.72
1028.11	2076.64
1028.27	2150.37
1028.42	2189.28
1028.58	2183.13
1028.73	2084.83
1028.89	2115.55
1029.05	2146.27
1029.20	2207.71
>>>>>End Processed Spectral Data<<<<<
