SpectraSuite Data File
++++++++++++++++++++++++++++++++++++
Date: Tue Jun 13 12:02:25 CEST 2017
User: INFO_000
Dark Spectrum Present: No
Reference Spectrum Present: No
Number of Sampled Component Spectra: 1
Spectrometers: USB4H00879
Integration Time (usec): 30000 (USB4H00879)
Spectra Averaged: 1 (USB4H00879)
Boxcar Smoothing: 0 (USB4H00879)
Correct for Electrical Dark: No (USB4H00879)
Strobe/Lamp Enabled: No (USB4H00879)
Correct for Detector Non-linearity: No (USB4H00879)
Correct for Stray Light: No (USB4H00879)
Number of Pixels in Processed Spectrum: 3648
>>>>>Begin Processed Spectral Data<<<<<
345.13	1337.32
345.34	1337.32
345.56	1337.32
345.78	1329.13
345.99	1398.76
346.21	1523.69
346.42	1523.69
346.64	1495.02
346.86	1574.89
347.07	1538.02
347.29	1523.69
347.50	1499.11
347.72	1566.70
347.94	1544.17
348.15	1527.78
348.37	1560.55
348.59	1568.74
348.80	1439.72
349.02	1548.26
349.23	1662.95
349.45	1556.46
349.67	1562.60
349.88	1601.51
350.10	1597.42
350.31	1617.90
350.53	1591.27
350.75	1587.18
350.96	1624.04
351.18	1634.28
351.39	1638.38
351.61	1603.56
351.82	1667.05
352.04	1673.19
352.26	1587.18
352.47	1716.20
352.69	1693.67
352.90	1605.61
353.12	1587.18
353.34	1599.46
353.55	1628.14
353.77	1636.33
353.98	1656.81
354.20	1667.05
354.41	1689.57
354.63	1667.05
354.85	1708.01
355.06	1677.29
355.28	1558.50
355.49	1675.24
355.71	1628.14
355.92	1685.48
356.14	1679.33
356.35	1644.52
356.57	1660.90
356.79	1642.47
357.00	1613.80
357.22	1624.04
357.43	1535.98
357.65	1632.23
357.86	1654.76
358.08	1658.85
358.29	1716.20
358.51	1708.01
358.72	1589.22
358.94	1689.57
359.16	1628.14
359.37	1593.32
359.59	1671.14
359.80	1626.09
360.02	1722.34
360.23	1656.81
360.45	1699.81
360.66	1611.75
360.88	1619.94
361.09	1624.04
361.31	1710.05
361.52	1677.29
361.74	1603.56
361.95	1738.73
362.17	1587.18
362.38	1740.77
362.60	1740.77
362.81	1742.82
363.03	1675.24
363.24	1656.81
363.46	1648.61
363.67	1759.21
363.89	1675.24
364.10	1716.20
364.32	1701.86
364.53	1667.05
364.75	1630.18
364.96	1665.00
365.18	1718.25
365.39	1658.85
365.61	1673.19
365.82	1716.20
366.04	1705.96
366.25	1650.66
366.47	1681.38
366.68	1650.66
366.90	1601.51
367.11	1697.77
367.33	1654.76
367.54	1724.39
367.76	1695.72
367.97	1705.96
368.19	1708.01
368.40	1775.59
368.62	1624.04
368.83	1603.56
369.05	1738.73
369.26	1660.90
369.48	1695.72
369.69	1689.57
369.91	1773.54
370.12	1712.10
370.33	1726.44
370.55	1687.53
370.76	1724.39
370.98	1789.92
371.19	1740.77
371.41	1732.58
371.62	1724.39
371.84	1701.86
372.05	1755.11
372.27	1691.62
372.48	1732.58
372.69	1753.06
372.91	1796.07
373.12	1761.25
373.34	1726.44
373.55	1837.03
373.77	1859.56
373.98	1816.55
374.20	1785.83
374.41	1851.36
374.62	1722.34
374.84	1771.49
375.05	1812.45
375.27	1834.98
375.48	1826.79
375.70	1834.98
375.91	1839.08
376.12	1851.36
376.34	1800.16
376.55	1826.79
376.77	1927.14
376.98	1810.40
377.19	1738.73
377.41	1753.06
377.62	1789.92
377.84	1871.84
378.05	1845.22
378.27	1839.08
378.48	1839.08
378.69	1859.56
378.91	1880.04
379.12	1841.12
379.34	1935.33
379.55	1933.28
379.76	1898.47
379.98	1800.16
380.19	1959.91
380.41	1847.27
380.62	1875.94
380.83	1884.13
381.05	1839.08
381.26	1957.86
381.47	1910.75
381.69	1884.13
381.90	1925.09
382.12	1882.08
382.33	1869.80
382.54	1822.69
382.76	1902.56
382.97	1908.71
383.19	1900.52
383.40	1894.37
383.61	1890.28
383.83	1875.94
384.04	1941.47
384.25	2045.92
384.47	1937.38
384.68	1976.29
384.89	1972.19
385.11	1912.80
385.32	1900.52
385.54	1986.53
385.75	1904.61
385.96	2019.30
386.18	2060.26
386.39	1974.24
386.60	1974.24
386.82	1964.00
387.03	1937.38
387.24	1961.95
387.46	2039.78
387.67	2029.54
387.88	2043.87
388.10	2041.82
388.31	2013.15
388.52	2060.26
388.74	2097.12
388.95	2099.17
389.16	2013.15
389.38	2072.54
389.59	2095.07
389.80	2117.60
390.02	2027.49
390.23	2170.85
390.44	2136.03
390.66	2156.51
390.87	2117.60
391.08	2179.04
391.30	2154.46
391.51	2133.98
391.72	2062.30
391.94	2140.13
392.15	2146.27
392.36	2125.79
392.58	2093.02
392.79	2131.94
393.00	2211.81
393.22	2207.71
393.43	2181.09
393.64	2308.06
393.85	2164.70
394.07	2164.70
394.28	2273.25
394.49	2209.76
394.71	2252.77
394.92	2328.54
395.13	2197.47
395.35	2203.61
395.56	2224.09
395.77	2353.12
395.98	2301.92
396.20	2346.97
396.41	2357.21
396.62	2357.21
396.84	2211.81
397.05	2301.92
397.26	2418.65
397.47	2437.08
397.69	2330.59
397.90	2428.89
398.11	2369.50
398.32	2361.31
398.54	2357.21
398.75	2285.53
398.96	2459.61
399.18	2420.70
399.39	2379.74
399.60	2508.76
399.81	2404.32
400.03	2400.22
400.24	2482.14
400.45	2398.17
400.66	2449.37
400.88	2469.85
401.09	2566.10
401.30	2467.80
401.51	2541.53
401.73	2549.72
401.94	2443.23
402.15	2525.15
402.36	2545.63
402.58	2519.00
402.79	2494.43
403.00	2566.10
403.21	2641.88
403.43	2588.63
403.64	2541.53
403.85	2510.81
404.06	2643.93
404.27	2478.04
404.49	2674.65
404.70	2545.63
404.91	2648.02
405.12	2717.65
405.34	2549.72
405.55	2705.37
405.76	2627.54
405.97	2678.74
406.19	2637.78
406.40	2854.87
406.61	2740.18
406.82	2744.28
407.03	2707.41
407.25	2713.56
407.46	2725.85
407.67	2779.09
407.88	2787.29
408.09	2779.09
408.31	2807.77
408.52	2789.33
408.73	2758.61
408.94	2721.75
409.15	2801.62
409.37	2791.38
409.58	2863.06
409.79	2899.92
410.00	2844.63
410.21	2893.78
410.43	2881.49
410.64	2863.06
410.85	2910.16
411.06	2908.12
411.27	2906.07
411.48	2883.54
411.70	2951.12
411.91	2934.74
412.12	3006.42
412.33	2770.90
412.54	2877.40
412.76	2992.08
412.97	3082.19
413.18	3074.00
413.39	3065.81
413.60	2951.12
413.81	3047.38
414.03	3016.66
414.24	2971.60
414.45	3080.14
414.66	2992.08
414.87	3114.96
415.08	3006.42
415.30	3074.00
415.51	3098.58
415.72	3090.38
415.93	3088.34
416.14	3112.91
416.35	3157.97
416.56	3137.49
416.78	3184.59
416.99	3250.13
417.20	3014.61
417.41	3196.88
417.62	3164.11
417.83	3221.45
418.04	3209.17
418.26	3215.31
418.47	3250.13
418.68	3336.14
418.89	3352.52
419.10	3407.82
419.31	3241.93
419.52	3377.10
419.73	3313.61
419.95	3276.75
420.16	3198.93
420.37	3350.48
420.58	3366.86
420.79	3196.88
421.00	3348.43
421.21	3377.10
421.42	3334.09
421.63	3440.59
421.85	3407.82
422.06	3565.51
422.27	3469.26
422.48	3528.65
422.69	3532.75
422.90	3520.46
423.11	3463.12
423.32	3444.68
423.53	3596.23
423.75	3538.89
423.96	3692.49
424.17	3524.55
424.38	3688.39
424.59	3706.82
424.80	3626.95
425.01	3583.95
425.22	3696.58
425.43	3692.49
425.64	3786.69
425.85	3731.40
426.06	3778.50
426.28	3682.25
426.49	3749.83
426.70	3635.14
426.91	3942.34
427.12	3780.55
427.33	3925.96
427.54	3708.87
427.75	3801.03
427.96	3956.68
428.17	3848.13
428.38	3971.01
428.59	3807.17
428.80	3956.68
429.01	3973.06
429.23	4022.21
429.44	4143.04
429.65	4089.79
429.86	4067.27
430.07	4085.70
430.28	3958.72
430.49	4011.97
430.70	4206.53
430.91	4116.42
431.12	4097.99
431.33	4196.29
431.54	4286.40
431.75	4220.86
431.96	4310.97
432.17	4304.83
432.38	4237.25
432.59	4528.06
432.80	4351.93
433.01	4407.23
433.22	4419.52
433.43	4249.54
433.64	4464.57
433.85	4374.46
434.06	4407.23
434.27	4394.94
434.49	4474.81
434.70	4503.48
434.91	4556.73
435.12	4542.39
435.33	4534.20
435.54	4495.29
435.75	4507.58
435.96	4548.54
436.17	4437.95
436.38	4675.51
436.59	4691.90
436.80	4566.97
437.01	4859.83
437.22	4806.58
437.43	4634.55
437.64	4609.98
437.85	4888.50
438.06	4769.72
438.27	4671.42
438.48	4661.18
438.69	4898.74
438.90	4761.53
439.11	4677.56
439.32	4974.52
439.53	4818.87
439.74	4911.03
439.95	4943.80
440.16	4886.45
440.37	4966.32
440.57	4982.71
440.78	4992.95
440.99	4861.88
441.20	4966.32
441.41	4962.23
441.62	4900.79
441.83	5005.24
442.04	5023.67
442.25	5044.15
442.46	5033.91
442.67	5169.07
442.88	5410.73
443.09	5183.41
443.30	5160.88
443.51	5216.18
443.72	5443.50
443.93	5070.77
444.14	5365.68
444.35	5193.65
444.56	5306.29
444.77	5330.86
444.98	5357.49
445.19	5351.34
445.40	5347.25
445.61	5328.81
445.81	5488.56
446.02	5332.91
446.23	5451.69
446.44	5216.18
446.65	5380.01
446.86	5273.52
447.07	5470.12
447.28	5525.42
447.49	5537.71
447.70	5523.37
447.91	5580.71
448.12	5593.00
448.33	5670.83
448.54	5685.16
448.74	5519.28
448.95	5666.73
449.16	5541.80
449.37	5896.10
449.58	5693.35
449.79	5892.01
450.00	5707.69
450.21	5842.85
450.42	5904.29
450.63	6084.52
450.84	6002.60
451.05	5863.33
451.25	5877.67
451.46	5767.08
451.67	5959.59
451.88	6049.70
452.09	5945.25
452.30	5975.97
452.51	6064.04
452.72	6078.37
452.93	6244.26
453.13	6018.98
453.34	6176.67
453.55	6057.89
453.76	6191.01
453.97	6420.38
454.18	6324.13
454.39	6375.33
454.60	6340.51
454.81	6203.30
455.01	6485.92
455.22	6270.88
455.43	6358.94
455.64	6555.55
455.85	6535.07
456.06	6676.38
456.27	6606.75
456.48	6485.92
456.68	6565.79
456.89	6684.57
457.10	6756.25
457.31	6827.93
457.52	6737.82
457.73	6870.94
457.94	6866.84
458.14	6602.65
458.35	7006.10
458.56	6834.07
458.77	6897.56
458.98	7022.48
459.19	7045.01
459.39	7004.05
459.60	7137.17
459.81	7038.87
460.02	7063.44
460.23	7137.17
460.44	7399.31
460.65	7298.96
460.85	7315.34
461.06	7346.06
461.27	7092.12
461.48	7464.85
461.69	7544.72
461.89	7214.99
462.10	7536.52
462.31	7497.61
462.52	7411.60
462.73	7563.15
462.94	7585.68
463.14	7657.36
463.35	7626.64
463.56	7935.88
463.77	7915.40
463.98	7825.29
464.18	7858.06
464.39	8077.19
464.60	7982.98
464.81	8036.23
465.02	8044.42
465.23	8193.92
465.43	7974.79
465.64	8406.91
465.85	8206.21
466.06	8275.84
466.27	8476.54
466.47	8351.62
466.68	8513.41
466.89	8427.39
467.10	8722.30
467.30	8384.38
467.51	8740.73
467.72	8634.24
467.93	8728.44
468.14	8712.06
468.34	8859.51
468.55	8904.57
468.76	8980.34
468.97	8836.99
469.17	8955.77
469.38	9142.13
469.59	9211.76
469.80	9152.37
470.01	9256.82
470.21	9090.93
470.42	9357.17
470.63	9441.14
470.84	9162.61
471.04	9512.81
471.25	9451.38
471.46	9525.10
471.67	9693.04
471.87	9635.69
472.08	9787.24
472.29	9885.55
472.50	9625.45
472.70	9940.84
472.91	9942.89
473.12	10094.44
473.33	10239.84
473.53	10213.22
473.74	10188.64
473.95	10270.56
474.16	10526.56
474.36	10327.91
474.57	10471.26
474.78	10776.41
474.99	10604.38
475.19	10440.54
475.40	10876.76
475.61	10717.02
475.81	11005.78
476.02	11229.01
476.23	10915.67
476.44	11071.32
476.64	11364.18
476.85	11636.56
477.06	11517.78
477.27	11470.67
477.47	11640.65
477.68	11710.29
477.89	11792.20
478.09	11716.43
478.30	11712.33
478.51	11671.37
478.71	11929.42
478.92	12164.93
479.13	11951.95
479.34	12164.93
479.54	12390.21
479.75	12474.18
479.96	12367.68
480.16	12416.83
480.37	12422.98
480.58	12670.78
480.78	12861.24
480.99	12595.01
481.20	12869.44
481.41	12875.58
481.61	12767.04
481.82	13262.65
482.03	13039.42
482.23	13121.34
482.44	13387.57
482.65	13422.39
482.85	13377.33
483.06	13504.31
483.27	13586.22
483.47	13891.37
483.68	13967.15
483.89	13965.10
484.09	13952.81
484.30	14018.35
484.51	14010.15
484.71	14393.12
484.92	14204.71
485.13	14141.22
485.33	14421.80
485.54	14479.14
485.75	14651.17
485.95	14878.49
486.16	14722.85
486.37	14769.95
486.57	14788.38
486.78	14788.38
486.98	15015.71
487.19	15245.08
487.40	15038.23
487.60	15193.88
487.81	15273.75
488.02	15288.09
488.22	15339.29
488.43	15349.53
488.64	15415.06
488.84	15806.22
489.05	15662.86
489.25	15638.29
489.46	15998.73
489.67	15902.48
489.87	15959.82
490.08	16105.23
490.29	16092.94
490.49	16307.98
490.70	16482.05
490.90	16330.50
491.11	16410.37
491.32	16615.17
491.52	16920.32
491.73	16809.73
491.94	16852.73
492.14	16686.85
492.35	17020.67
492.55	17213.18
492.76	17225.47
492.97	17110.78
493.17	17247.99
493.38	17360.63
493.58	17352.44
493.79	17772.27
494.00	17141.50
494.20	17702.64
494.41	17641.20
494.61	17794.80
494.82	17731.31
495.02	17782.51
495.23	17792.75
495.44	18083.56
495.64	18282.22
495.85	18251.50
496.05	18300.65
496.26	18534.12
496.47	18648.80
496.67	18497.25
496.88	18374.38
497.08	18335.46
497.29	18671.33
497.49	18669.28
497.70	19039.97
497.91	19001.05
498.11	19031.77
498.32	19072.73
498.52	19218.14
498.73	19134.17
498.93	19263.19
499.14	19244.76
499.34	19427.03
499.55	19564.25
499.76	19482.33
499.96	19844.82
500.17	19412.70
500.37	19529.43
500.58	19795.67
500.78	19760.85
500.99	19791.57
501.19	20094.67
501.40	20086.48
501.60	19885.78
501.81	20010.70
502.02	20129.48
502.22	19971.79
502.43	20227.79
502.63	20403.91
502.84	20696.77
503.04	20371.15
503.25	20672.20
503.45	20491.98
503.66	20537.03
503.86	20674.24
504.07	20723.40
504.27	20829.89
504.48	20983.49
504.68	20764.36
504.89	20664.00
505.09	21069.50
505.30	20928.19
505.50	21110.46
505.71	21206.72
505.91	21176.00
506.12	21176.00
506.32	21231.29
506.53	21444.28
506.73	21356.22
506.94	21640.89
507.14	21460.66
507.35	21632.69
507.55	21542.58
507.76	21692.08
507.96	21640.89
508.17	21655.22
508.37	21733.04
508.58	21931.70
508.78	21831.35
508.99	22154.93
509.19	22085.30
509.40	22091.44
509.60	22165.17
509.81	22179.50
510.01	22349.48
510.22	22294.19
510.42	22316.72
510.63	22382.25
510.83	22341.29
511.04	22458.03
511.24	22722.21
511.44	22836.90
511.65	22849.19
511.85	22738.60
512.06	22523.56
512.26	22761.12
512.47	22820.52
512.67	22654.63
512.88	22754.98
513.08	22705.83
513.29	23189.15
513.49	23072.42
513.69	23131.81
513.90	22961.83
514.10	23080.61
514.31	23176.86
514.51	23375.52
514.72	23266.97
514.92	22943.39
515.13	23295.64
515.33	23408.28
515.53	23545.50
515.74	23635.61
515.94	23852.69
516.15	23584.41
516.35	23408.28
516.56	24129.17
516.76	23692.95
516.96	23623.32
517.17	23785.11
517.37	23764.63
517.58	24010.39
517.78	24305.29
517.99	23987.86
518.19	23920.28
518.39	24409.74
518.60	24276.62
518.80	24153.74
519.01	24567.43
519.21	24448.65
519.41	24475.27
519.62	24514.19
519.82	24829.57
520.03	24784.52
520.23	24798.85
520.43	24745.61
520.64	24997.51
520.84	24931.97
521.05	24874.63
521.25	25067.14
521.45	24925.83
521.66	25265.79
521.86	25017.99
522.07	25276.03
522.27	24897.16
522.47	25304.70
522.68	25581.18
522.88	25273.98
523.08	25427.58
523.29	25947.76
523.49	25609.85
523.70	25734.78
523.90	25656.95
524.10	25822.84
524.31	25980.53
524.51	25769.59
524.71	26349.17
524.92	26027.63
525.12	26300.01
525.33	26140.27
525.53	26392.17
525.73	26386.03
525.94	26476.14
526.14	26812.01
526.34	26629.74
526.55	26793.58
526.75	26625.64
526.95	26818.15
527.16	26752.62
527.36	26728.04
527.56	27133.54
527.77	27147.87
527.97	27027.04
528.17	27340.38
528.38	27381.34
528.58	27536.99
528.78	27524.70
528.99	27367.01
529.19	27526.75
529.39	27381.34
529.60	27704.92
529.80	27782.74
530.00	27729.50
530.21	27815.51
530.41	28038.74
530.61	27864.66
530.82	28012.12
531.02	28200.53
531.22	28464.72
531.43	28143.19
531.63	28264.02
531.83	28522.06
532.04	29111.88
532.24	28583.50
532.44	28667.47
532.64	28735.05
532.85	29216.32
533.05	29075.01
533.25	28952.13
533.46	29009.48
533.66	29460.03
533.86	29208.13
534.07	29636.16
534.27	29249.09
534.47	29662.78
534.67	29664.83
534.88	29324.86
535.08	29580.86
535.28	29929.02
535.49	29867.58
535.69	30211.64
535.89	30109.24
536.09	29955.64
536.30	30498.35
536.50	30113.33
536.70	30592.56
536.91	30441.01
537.11	30316.08
537.31	30336.56
537.51	30588.46
537.72	30801.45
537.92	30907.94
538.12	30969.38
538.32	31102.50
538.53	31227.43
538.73	31186.47
538.93	31039.01
539.13	31295.01
539.34	31512.10
539.54	30985.77
539.74	31315.49
539.94	31256.10
540.15	31409.70
540.35	31712.80
540.55	31362.59
540.75	31587.87
540.96	31569.44
541.16	31665.69
541.36	31671.84
541.56	31796.76
541.77	32122.39
541.97	31987.22
542.17	32085.53
542.37	31944.22
542.58	32056.85
542.78	31995.42
542.98	32126.49
543.18	32476.69
543.38	32519.70
543.59	32417.30
543.79	32597.52
543.99	32495.12
544.19	32697.87
544.40	32558.61
544.60	32722.44
544.80	32816.65
545.00	33052.17
545.20	32761.36
545.41	33175.05
545.61	32777.74
545.81	33043.98
546.01	32984.58
546.21	32894.47
546.42	33043.98
546.62	33302.02
546.82	33031.69
547.02	33531.39
547.22	33422.85
547.43	33066.50
547.63	33166.85
547.83	33412.61
548.03	33287.68
548.23	33773.05
548.44	33445.38
548.64	33740.29
548.84	33766.91
549.04	33793.53
549.24	34061.82
549.45	34000.38
549.65	33611.26
549.85	33654.27
550.05	34065.91
550.25	34074.10
550.45	34493.94
550.66	33943.03
550.86	33926.65
551.06	34334.20
551.26	34321.91
551.46	34584.05
551.66	34256.37
551.87	34258.42
552.07	34493.94
552.27	34328.05
552.47	34592.24
552.67	34743.79
552.87	34536.94
553.07	34631.15
553.28	34610.67
553.48	34928.11
553.68	34762.22
553.88	34993.64
554.08	34764.27
554.28	34872.81
554.48	34674.16
554.69	35087.85
554.89	34874.86
555.09	34782.70
555.29	34690.54
555.49	34627.06
555.69	34964.97
555.89	34962.92
556.10	35263.97
556.30	34784.75
556.50	35370.47
556.70	34962.92
556.90	35407.33
557.10	35259.88
557.30	34962.92
557.50	35554.79
557.70	35282.41
557.91	35417.57
558.11	35632.61
558.31	35818.97
558.51	35675.62
558.71	35579.36
558.91	35270.12
559.11	35311.08
559.31	35741.15
559.51	35499.49
559.72	35460.58
559.92	36042.20
560.12	35534.31
560.32	35880.41
560.52	35841.50
560.72	35771.87
560.92	35851.74
561.12	35528.16
561.32	36169.18
561.52	35718.62
561.72	36083.16
561.93	35907.04
562.13	36093.40
562.33	35917.28
562.53	36396.50
562.73	36117.98
562.93	35816.93
563.13	36048.35
563.33	36122.07
563.53	36322.77
563.73	35710.43
563.93	36095.45
564.13	36591.06
564.33	36326.87
564.53	36367.83
564.74	36189.66
564.94	36259.29
565.14	36361.69
565.34	36316.63
565.54	36249.05
565.74	36290.01
565.94	37008.84
566.14	36349.40
566.34	36056.54
566.54	36347.35
566.74	36345.30
566.94	36922.83
567.14	36589.01
567.34	36404.69
567.54	36670.93
567.74	36441.56
567.94	36257.24
568.14	36730.32
568.34	37287.37
568.54	36859.34
568.74	36869.58
568.94	36564.43
569.14	37041.61
569.34	37150.15
569.54	36965.84
569.75	36615.63
569.95	36636.11
570.15	37152.20
570.35	37103.05
570.55	36816.33
570.75	36619.73
570.95	37117.39
571.15	36959.69
571.35	36992.46
571.55	37350.85
571.75	37074.38
571.95	37180.87
572.15	37387.72
572.35	37422.53
572.55	37238.22
572.75	37428.68
572.95	37309.89
573.15	37438.92
573.35	37537.22
573.55	37203.40
573.75	37291.46
573.95	37645.76
574.15	37709.25
574.35	37277.13
574.55	37449.16
574.75	37303.75
574.95	37912.00
575.15	37596.61
575.34	37447.11
575.54	37637.57
575.74	37830.08
575.94	37635.52
576.14	37719.49
576.34	38077.88
576.54	38036.92
576.74	37967.29
576.94	37813.70
577.14	37774.78
577.34	38258.10
577.54	37912.00
577.74	38069.69
577.94	38249.91
578.14	37828.03
578.34	38411.70
578.54	37813.70
578.74	37858.75
578.94	38225.34
579.14	38217.14
579.34	38391.22
579.54	38075.84
579.74	38536.63
579.94	38430.13
580.13	38387.13
580.33	38493.62
580.53	38495.67
580.73	38423.99
580.93	38591.92
581.13	38573.49
581.33	38911.41
581.53	38614.45
581.73	38739.38
581.93	38890.93
582.13	39028.14
582.33	39101.87
582.53	38858.16
582.73	39167.40
582.92	39085.48
583.12	38917.55
583.32	38899.12
583.52	39017.90
583.72	39531.94
583.92	38972.85
584.12	39480.74
584.32	39478.69
584.52	39167.40
584.72	39351.72
584.92	39531.94
585.11	39302.57
585.31	39368.10
585.51	39042.48
585.71	39337.38
585.91	39574.95
586.11	39611.81
586.31	39112.11
586.51	39316.90
586.71	39810.46
586.91	39775.65
587.10	39425.45
587.30	39796.13
587.50	39798.18
587.70	40293.79
587.90	39779.74
588.10	40041.88
588.30	39511.46
588.50	39728.55
588.69	39902.62
588.89	39816.61
589.09	39943.58
589.29	40119.71
589.49	40344.98
589.69	39656.87
589.89	40365.46
590.08	40056.22
590.28	40324.50
590.48	40474.01
590.68	40033.69
590.88	40244.63
591.08	39955.87
591.28	40031.65
591.47	40574.36
591.67	40310.17
591.87	40471.96
592.07	40164.76
592.27	40652.18
592.47	40519.06
592.67	40148.38
592.86	40568.21
593.06	40592.79
593.26	40582.55
593.46	40179.10
593.66	40920.46
593.86	41217.42
594.05	40553.88
594.25	40924.56
594.45	40387.99
594.65	40340.89
594.85	40459.67
595.05	40560.02
595.24	40871.31
595.44	40652.18
595.64	40766.87
595.84	41086.35
596.04	40920.46
596.23	40875.41
596.43	41002.38
596.63	40519.06
596.83	40899.98
597.03	41041.29
597.22	41321.87
597.42	41084.30
597.62	41164.17
597.82	41094.54
598.02	41143.69
598.21	41465.22
598.41	41088.40
598.61	41198.99
598.81	41219.47
599.01	41346.44
599.20	41360.78
599.40	41403.78
599.60	41231.75
599.80	41416.07
600.00	41622.92
600.19	41706.88
600.39	41592.20
600.59	41745.80
600.79	41715.08
600.98	41536.90
601.18	41856.39
601.38	41956.74
601.58	41846.15
601.78	41723.27
601.97	41936.26
602.17	42239.36
602.37	41952.64
602.57	41647.49
602.76	42292.60
602.96	41977.22
603.16	41966.98
603.36	41985.41
603.55	42507.64
603.75	42001.79
603.95	42245.50
604.15	42632.57
604.34	42083.71
604.54	42335.61
604.74	42485.11
604.94	42255.74
605.13	42196.35
605.33	42407.29
605.53	42360.19
605.73	42540.41
605.92	42218.88
606.12	42657.14
606.32	42163.58
606.52	42757.49
606.71	42620.28
606.91	42831.22
607.11	42538.36
607.30	42511.74
607.50	42880.37
607.70	42849.65
607.90	42636.66
608.09	42575.22
608.29	42601.85
608.49	43122.03
608.68	42618.23
608.88	42859.89
609.08	42939.76
609.28	42888.56
609.47	42493.30
609.67	43412.84
609.87	43097.45
610.06	42886.51
610.26	42833.27
610.46	43212.14
610.66	42808.69
610.85	43332.97
611.05	42997.10
611.25	42950.00
611.44	42863.99
611.64	43091.31
611.84	42749.30
612.03	42773.88
612.23	43009.39
612.43	43130.22
612.62	42814.83
612.82	43142.51
613.02	43009.39
613.21	42995.06
613.41	42485.11
613.61	43537.77
613.80	42888.56
614.00	43355.50
614.20	43183.47
614.39	42978.67
614.59	42620.28
614.79	43320.68
614.98	42972.53
615.18	43015.54
615.38	43029.87
615.57	42681.72
615.77	43271.53
615.97	43177.33
616.16	43169.13
616.36	42620.28
616.56	43421.03
616.75	42628.47
616.95	43238.76
617.15	42904.95
617.34	42931.57
617.54	42913.14
617.74	43439.47
617.93	42958.19
618.13	42970.48
618.32	43267.44
618.52	43001.20
618.72	43294.06
618.91	42952.05
619.11	42583.41
619.31	42835.31
619.50	42888.56
619.70	42720.63
619.90	43115.89
620.09	42677.62
620.29	43040.11
620.48	42548.60
620.68	43210.09
620.88	43029.87
621.07	42915.19
621.27	42653.05
621.46	42386.81
621.66	42691.96
621.86	43013.49
622.05	42745.20
622.25	42902.90
622.44	42667.38
622.64	42624.37
622.84	42710.39
623.03	42743.16
623.23	42833.27
623.42	42716.53
623.62	42780.02
623.82	43001.20
624.01	42640.76
624.21	43107.69
624.40	42796.40
624.60	42743.16
624.80	42300.79
624.99	42327.42
625.19	42468.73
625.38	42587.51
625.58	42470.78
625.77	42554.74
625.97	42337.66
626.17	42212.73
626.36	42374.52
626.56	42325.37
626.75	42399.10
626.95	42870.13
627.14	42392.95
627.34	42874.23
627.54	42777.97
627.73	42132.86
627.93	42433.91
628.12	42218.88
628.32	42384.76
628.51	42407.29
628.71	42276.22
628.90	42603.89
629.10	42493.30
629.30	41799.04
629.49	42550.65
629.69	42585.46
629.88	42331.51
630.08	42726.77
630.27	42421.62
630.47	42366.33
630.66	42319.23
630.86	42421.62
631.05	42388.86
631.25	42405.24
631.44	42454.39
631.64	42444.15
631.84	42106.24
632.03	42308.99
632.23	41997.70
632.42	42616.18
632.62	42573.17
632.81	42202.49
633.01	42202.49
633.20	42220.92
633.40	42499.45
633.59	42423.67
633.79	42356.09
633.98	42089.85
634.18	42003.84
634.37	42407.29
634.57	42190.20
634.76	42218.88
634.96	42349.95
635.15	42485.11
635.35	42341.75
635.54	41987.46
635.74	42288.51
635.93	41979.26
636.13	42753.40
636.32	42456.44
636.52	41870.72
636.71	42155.39
636.91	42274.17
637.10	42384.76
637.30	42222.97
637.49	42339.71
637.69	42069.37
637.88	42210.68
638.08	42057.09
638.27	42780.02
638.46	42333.56
638.66	41801.09
638.85	42032.51
639.05	42218.88
639.24	42607.99
639.44	42300.79
639.63	42442.10
639.83	42630.52
640.02	42501.50
640.22	42311.03
640.41	42777.97
640.61	41676.16
640.80	41794.95
640.99	41923.97
641.19	42646.90
641.38	42210.68
641.58	42497.40
641.77	42390.91
641.97	41905.54
642.16	41942.40
642.36	42192.25
642.55	42282.36
642.74	42005.89
642.94	42825.07
643.13	42052.99
643.33	42399.10
643.52	42347.90
643.72	42536.31
643.91	42515.83
644.10	42157.44
644.30	42478.97
644.49	41938.30
644.69	42464.63
644.88	42050.94
645.08	41985.41
645.27	42132.86
645.46	41889.15
645.66	42734.96
645.85	42356.09
646.05	42427.77
646.24	42397.05
646.43	42222.97
646.63	42483.06
646.82	42446.20
647.02	42308.99
647.21	42466.68
647.40	42157.44
647.60	42284.41
647.79	42276.22
647.99	42261.88
648.18	42280.31
648.37	42403.19
648.57	42511.74
648.76	42102.14
648.96	42231.16
649.15	42243.45
649.34	42341.75
649.54	42468.73
649.73	42050.94
649.92	42571.13
650.12	42452.34
650.31	42280.31
650.51	41856.39
650.70	42472.82
650.89	42005.89
651.09	42395.00
651.28	42636.66
651.47	42542.45
651.67	42032.51
651.86	42173.82
652.06	42198.40
652.25	42528.12
652.44	42276.22
652.64	42163.58
652.83	42448.25
653.02	42325.37
653.22	42306.94
653.41	42087.81
653.60	42141.05
653.80	42145.15
653.99	42485.11
654.18	42059.13
654.38	42384.76
654.57	42120.57
654.76	42757.49
654.96	42354.04
655.15	41667.97
655.34	42438.01
655.54	41852.29
655.73	42237.31
655.92	42122.62
656.12	42270.08
656.31	42513.78
656.50	42227.07
656.70	42368.38
656.89	42055.04
657.08	41973.12
657.28	42220.92
657.47	42243.45
657.66	42403.19
657.86	42145.15
658.05	41985.41
658.24	42694.00
658.43	41678.21
658.63	42333.56
658.82	42175.87
659.01	42501.50
659.21	42413.43
659.40	42263.93
659.59	42235.26
659.79	42220.92
659.98	42009.98
660.17	42206.59
660.36	42157.44
660.56	42167.68
660.75	42251.64
660.94	42165.63
661.14	42196.35
661.33	42237.31
661.52	42177.92
661.71	42425.72
661.91	42022.27
662.10	41878.91
662.29	42296.70
662.49	42270.08
662.68	42102.14
662.87	41934.21
663.06	42460.54
663.26	41932.16
663.45	42114.43
663.64	41596.29
663.83	42241.40
664.03	42339.71
664.22	41899.39
664.41	41764.23
664.60	41825.67
664.80	42167.68
664.99	41758.08
665.18	41993.60
665.37	42096.00
665.57	42012.03
665.76	41811.33
665.95	41901.44
666.14	41936.26
666.34	41739.65
666.53	41649.54
666.72	42161.53
666.91	42042.75
667.11	42044.80
667.30	41901.44
667.49	41958.78
667.68	42048.89
667.87	41938.30
668.07	41598.34
668.26	41541.00
668.45	41538.95
668.64	41749.89
668.84	42034.56
669.03	41903.49
669.22	41575.81
669.41	41799.04
669.60	41639.30
669.80	41467.27
669.99	42050.94
670.18	41946.50
670.37	41794.95
670.57	41794.95
670.76	41483.66
670.95	41604.49
671.14	42073.47
671.33	41524.61
671.53	41717.12
671.72	41364.87
671.91	41639.30
672.10	41328.01
672.29	41213.32
672.48	41627.01
672.68	41788.80
672.87	41024.91
673.06	41434.50
673.25	41194.89
673.44	41217.42
673.64	41381.26
673.83	41426.31
674.02	41016.72
674.21	41065.87
674.40	41485.70
674.59	41008.53
674.79	41065.87
674.98	41205.13
675.17	41180.56
675.36	40967.57
675.55	41452.94
675.74	41047.44
675.94	41330.06
676.13	41133.45
676.32	41096.59
676.51	41241.99
676.70	41383.30
676.89	41164.17
677.08	41389.45
677.28	40859.02
677.47	41164.17
677.66	41266.57
677.85	40992.14
678.04	41459.08
678.23	41133.45
678.42	41084.30
678.62	40631.70
678.81	41426.31
679.00	40639.89
679.19	41170.32
679.38	40609.17
679.57	40805.78
679.76	41352.58
679.96	41166.22
680.15	41084.30
680.34	40881.55
680.53	40746.39
680.72	40672.66
680.91	40871.31
681.10	40584.60
681.29	40648.08
681.48	40615.32
681.68	40662.42
681.87	40357.27
682.06	40539.54
682.25	40633.75
682.44	40555.93
682.63	40107.42
682.82	40377.75
683.01	40383.90
683.20	40308.12
683.39	40471.96
683.59	40283.55
683.78	40369.56
683.97	40318.36
684.16	40162.72
684.35	40091.04
684.54	40193.43
684.73	40099.23
684.92	40117.66
685.11	40019.36
685.30	40205.72
685.49	40304.02
685.69	40002.97
685.88	39976.35
686.07	40117.66
686.26	40132.00
686.45	39722.40
686.64	40316.31
686.83	39968.16
687.02	40162.72
687.21	39812.51
687.40	40121.76
687.59	39953.82
687.78	39728.55
687.97	39746.98
688.16	39767.46
688.35	39753.12
688.54	39660.96
688.74	39749.03
688.93	39814.56
689.12	39542.18
689.31	39620.00
689.50	39931.29
689.69	39249.32
689.88	39296.42
690.07	39540.13
690.26	39388.58
690.45	39763.36
690.64	39353.77
690.83	39380.39
691.02	39343.53
691.21	39634.34
691.40	39556.52
691.59	39624.10
691.78	39474.60
691.97	39638.44
692.16	39464.36
692.35	39136.68
692.54	39368.10
692.73	39810.46
692.92	39003.56
693.11	39124.40
693.30	38677.94
693.49	39210.41
693.68	39372.20
693.87	38739.38
694.06	38972.85
694.25	38909.36
694.44	38978.99
694.63	39114.16
694.82	38970.80
695.01	38755.76
695.20	38710.71
695.39	38766.00
695.58	38901.17
695.77	38675.89
695.96	38407.61
696.15	38337.98
696.34	38208.95
696.53	38217.14
696.72	38583.73
696.91	38809.01
697.10	38317.50
697.29	38397.37
697.48	38815.15
697.67	38155.71
697.86	38266.30
698.05	38389.17
698.24	38299.06
698.43	38221.24
698.62	38477.24
698.81	38172.09
699.00	38256.06
699.19	38135.23
699.38	38022.59
699.57	37944.76
699.76	38178.23
699.95	37946.81
700.14	37762.50
700.32	38122.94
700.51	37957.05
700.70	38118.84
700.89	38133.18
701.08	37891.52
701.27	37815.74
701.46	38071.74
701.65	37373.38
701.84	38206.90
702.03	38073.79
702.22	37477.83
702.41	38002.11
702.60	37660.10
702.79	37492.16
702.98	37275.08
703.17	37434.82
703.35	37737.92
703.54	37168.58
703.73	37746.11
703.92	37742.02
704.11	37565.89
704.30	37545.41
704.49	37414.34
704.68	37299.65
704.87	37156.30
705.06	37041.61
705.25	37385.67
705.43	37062.09
705.62	37574.08
705.81	37080.52
706.00	37055.95
706.19	36808.14
706.38	36705.74
706.57	36959.69
706.76	37187.02
706.95	36826.57
707.14	36685.26
707.32	36648.40
707.51	36627.92
707.70	36918.73
707.89	37139.91
708.08	36916.68
708.27	36500.95
708.46	36959.69
708.65	36783.57
708.84	36824.53
709.02	36857.29
709.21	36806.09
709.40	36492.76
709.59	36466.13
709.78	36468.18
709.97	36480.47
710.16	36287.96
710.34	36414.93
710.53	36562.39
710.72	36146.65
710.91	36431.32
711.10	36488.66
711.29	36480.47
711.48	36160.98
711.66	36300.25
711.85	35855.84
712.04	36287.96
712.23	36333.01
712.42	36292.05
712.61	36181.46
712.80	36003.29
712.98	35876.32
713.17	35671.52
713.36	36034.01
713.55	35767.77
713.74	36077.02
713.93	35571.17
714.11	35898.84
714.30	35601.89
714.49	35751.39
714.68	35767.77
714.87	36093.40
715.06	35739.10
715.24	35419.62
715.43	35522.02
715.62	35425.76
715.81	35620.32
716.00	35739.10
716.18	35364.32
716.37	35608.03
716.56	35120.62
716.75	35544.55
716.94	35212.77
717.12	34917.87
717.31	35263.97
717.50	35151.34
717.69	35124.71
717.88	34741.74
718.06	34774.51
718.25	35143.14
718.44	35040.75
718.63	34645.49
718.82	34625.01
719.00	34852.33
719.19	34522.61
719.38	34813.42
719.57	34336.24
719.76	34444.79
719.94	34319.86
720.13	34158.07
720.32	34766.32
720.51	34590.19
720.69	34180.60
720.88	34219.51
721.07	34280.95
721.26	33936.89
721.44	34147.83
721.63	33887.74
721.82	33730.05
722.01	33715.71
722.20	34135.54
722.38	33654.27
722.57	33609.22
722.76	33967.61
722.95	33902.07
723.13	33519.10
723.32	33560.06
723.51	33236.48
723.70	33494.53
723.88	33562.11
724.07	33320.45
724.26	33232.39
724.44	33072.65
724.63	33273.35
724.82	33365.51
725.01	33142.28
725.19	33134.09
725.38	33281.54
725.57	32949.77
725.76	33582.59
725.94	32888.33
726.13	32597.52
726.32	32966.15
726.51	32671.25
726.69	33148.42
726.88	32792.08
727.07	32869.90
727.25	32853.51
727.44	32783.88
727.63	32806.41
727.82	32906.76
728.00	32783.88
728.19	32603.66
728.38	32636.43
728.56	32562.70
728.75	32992.78
728.94	32826.89
729.12	32525.84
729.31	32781.84
729.50	32577.04
729.69	32898.57
729.87	32740.88
730.06	32288.28
730.25	32538.13
730.43	32515.60
730.62	32550.42
730.81	32689.68
730.99	32527.89
731.18	32345.62
731.37	32364.05
731.55	32353.81
731.74	32542.22
731.93	32511.50
732.11	32486.93
732.30	32450.06
732.49	32273.94
732.67	32452.11
732.86	32179.73
733.05	32402.96
733.23	32259.60
733.42	32275.99
733.61	32091.67
733.79	32126.49
733.98	31946.26
734.17	32271.89
734.35	32280.08
734.54	31874.59
734.73	32282.13
734.91	32106.01
735.10	31827.48
735.29	32017.94
735.47	31782.43
735.66	31835.67
735.84	32030.23
736.03	32015.90
736.22	32097.81
736.40	31684.12
736.59	31778.33
736.78	31843.87
736.96	32054.81
737.15	31571.49
737.33	31575.58
737.52	31551.01
737.71	31798.81
737.89	31747.61
738.08	31600.16
738.27	31438.37
738.45	32011.80
738.64	31608.35
738.82	31510.05
739.01	31540.77
739.20	31444.51
739.38	31383.07
739.57	31774.24
739.75	31333.92
739.94	31168.04
740.13	31397.41
740.31	31141.41
740.50	31221.28
740.68	31272.48
740.87	31370.79
741.06	31438.37
741.24	31008.29
741.43	31026.73
741.61	31268.39
741.80	31055.40
741.99	31364.64
742.17	30834.22
742.36	31135.27
742.54	30674.48
742.73	31041.06
742.91	31102.50
743.10	30903.85
743.29	30981.67
743.47	31034.92
743.66	30797.35
743.84	30697.00
744.03	30746.15
744.21	30703.15
744.40	30891.56
744.59	30690.86
744.77	30752.30
744.96	30744.11
745.14	30608.94
745.33	30596.65
745.51	30301.75
745.70	30215.73
745.88	30307.89
746.07	30737.96
746.26	30121.52
746.44	30484.01
746.63	30383.66
746.81	30582.32
747.00	30191.16
747.18	30621.23
747.37	30395.95
747.55	30279.22
747.74	30434.86
747.92	30254.64
748.11	29883.96
748.29	30301.75
748.48	30309.94
748.66	30109.24
748.85	30133.81
749.03	30103.09
749.22	30359.09
749.41	29834.81
749.59	30068.28
749.78	29978.17
749.96	29816.38
750.15	30017.08
750.33	30006.84
750.52	29961.78
750.70	29961.78
750.89	29728.31
751.07	29589.05
751.26	29898.30
751.44	29689.40
751.63	29560.38
751.81	29521.47
752.00	29478.46
752.18	29781.56
752.37	29437.50
752.55	29447.74
752.74	29402.69
752.92	29347.39
753.10	29404.74
753.29	29253.19
753.47	29281.86
753.66	29449.79
753.84	29261.38
754.03	29169.22
754.21	29189.70
754.40	29306.43
754.58	29124.16
754.77	29150.79
754.95	29083.20
755.14	29058.63
755.32	29025.86
755.51	28968.52
755.69	29060.68
755.88	29136.45
756.06	29093.44
756.24	29054.53
756.43	28741.19
756.61	28933.70
756.80	28913.22
756.98	28829.26
757.17	29068.87
757.35	28837.45
757.54	28702.28
757.72	29017.67
757.90	28894.79
758.09	28911.17
758.27	28870.22
758.46	28327.50
758.64	28634.70
758.83	28819.02
759.01	28728.91
759.19	28575.31
759.38	28479.05
759.56	28466.77
759.75	28378.70
759.93	28468.81
760.12	28106.32
760.30	28401.23
760.48	28317.26
760.67	28298.83
760.85	28083.80
761.04	28362.32
761.22	28450.38
761.40	28175.95
761.59	28337.74
761.77	27881.05
761.96	28012.12
762.14	27788.89
762.32	28065.36
762.51	28218.96
762.69	28221.01
762.88	27985.49
763.06	27864.66
763.24	27764.31
763.43	27827.80
763.61	27913.81
763.80	27768.41
763.98	27676.25
764.16	27737.69
764.35	27680.35
764.53	27385.44
764.72	27385.44
764.90	27541.08
765.08	27721.30
765.27	27821.66
765.45	27670.11
765.63	27289.18
765.82	27373.15
766.00	27346.53
766.18	27377.25
766.37	27526.75
766.55	27397.73
766.74	27379.29
766.92	27127.39
767.10	27301.47
767.29	27328.10
767.47	27389.53
767.65	27045.48
767.84	27055.72
768.02	27039.33
768.20	26908.26
768.39	26908.26
768.57	27063.91
768.75	27039.33
768.94	27074.15
769.12	27090.53
769.30	26850.92
769.49	26971.75
769.67	26750.57
769.85	26539.63
770.04	26975.84
770.22	26527.34
770.40	26513.00
770.59	26439.28
770.77	26816.10
770.95	26304.11
771.14	26570.35
771.32	26541.68
771.50	26435.18
771.69	26465.90
771.87	26758.76
772.05	26175.09
772.24	26340.97
772.42	26230.38
772.60	26244.72
772.78	26375.79
772.97	26242.67
773.15	26396.27
773.33	26015.35
773.52	26052.21
773.70	26183.28
773.88	26302.06
774.07	26148.46
774.25	26242.67
774.43	26412.65
774.61	26054.26
774.80	26400.37
774.98	26222.19
775.16	26240.62
775.34	26674.79
775.53	25855.61
775.71	26297.97
775.89	26187.38
776.08	26181.23
776.26	26386.03
776.44	26093.17
776.62	26408.56
776.81	26287.73
776.99	26275.44
777.17	26105.46
777.35	26066.55
777.54	26044.02
777.72	26166.90
777.90	26414.70
778.08	26480.24
778.27	26160.75
778.45	26578.54
778.63	26650.22
778.81	26396.27
779.00	26580.59
779.18	26261.10
779.36	26664.55
779.54	26271.34
779.73	26433.13
779.91	26525.29
780.09	26584.68
780.27	26965.60
780.46	26738.28
780.64	27014.76
780.82	26717.80
781.00	26295.92
781.19	26482.28
781.37	26447.47
781.55	26617.45
781.73	26801.77
781.91	26457.71
782.10	26517.10
782.28	26275.44
782.46	26558.06
782.64	26691.18
782.82	26470.00
783.01	26404.46
783.19	26656.36
783.37	26779.24
783.55	26521.20
783.74	26588.78
783.92	26705.51
784.10	26709.61
784.28	26678.89
784.46	26482.28
784.64	26474.09
784.83	26355.31
785.01	26424.94
785.19	26463.85
785.37	26639.98
785.55	26547.82
785.74	26402.41
785.92	26592.87
786.10	26418.80
786.28	26572.39
786.46	26476.14
786.64	26269.30
786.83	26246.77
787.01	26328.69
787.19	26316.40
787.37	26140.27
787.55	26234.48
787.74	26070.64
787.92	26140.27
788.10	26144.37
788.28	26121.84
788.46	26216.05
788.64	26123.89
788.82	26183.28
789.01	25953.91
789.19	26025.59
789.37	25781.88
789.55	25820.79
789.73	25630.33
789.91	25763.45
790.09	25523.83
790.28	25794.17
790.46	25685.62
790.64	26009.20
790.82	25816.69
791.00	25632.38
791.18	25421.44
791.36	25523.83
791.55	25470.59
791.73	25390.72
791.91	25220.74
792.09	25366.14
792.27	24989.31
792.45	25185.92
792.63	25273.98
792.81	24997.51
793.00	25327.23
793.18	25329.28
793.36	24753.80
793.54	24952.45
793.72	24895.11
793.90	24872.58
794.08	24579.72
794.26	24684.17
794.44	24321.68
794.62	24430.22
794.81	24848.00
794.99	24497.80
795.17	24333.96
795.35	24544.91
795.53	24557.19
795.71	24647.30
795.89	24407.69
796.07	24143.50
796.25	24041.11
796.43	23948.95
796.61	23971.47
796.80	23944.85
796.98	24245.90
797.16	23828.12
797.34	23883.41
797.52	24223.37
797.70	24034.96
797.88	23756.44
798.06	23621.27
798.24	23582.36
798.42	23576.22
798.60	23436.95
798.78	23475.87
798.96	23328.41
799.14	23445.15
799.32	23398.04
799.51	23205.53
799.69	23408.28
799.87	23221.92
800.05	22877.86
800.23	23056.03
800.41	23092.90
800.59	23049.89
800.77	22834.85
800.95	22976.16
801.13	23047.84
801.31	22820.52
801.49	22711.97
801.67	22697.64
801.85	22881.95
802.03	22460.07
802.21	22470.31
802.39	22382.25
802.57	22568.62
802.75	22441.64
802.93	22146.73
803.11	22154.93
803.29	22099.63
803.47	22111.92
803.65	22060.72
803.83	21874.35
804.01	22150.83
804.19	21892.79
804.37	21638.84
804.55	21831.35
804.73	21810.87
804.91	21685.94
805.09	21970.61
805.27	21716.66
805.45	21651.13
805.63	21569.21
805.81	21690.04
805.99	21374.65
806.17	21616.31
806.35	21233.34
806.53	21253.82
806.71	21417.66
806.89	21343.93
807.07	21184.19
807.25	21475.00
807.43	21171.90
807.61	21157.57
807.79	21210.81
807.97	20985.54
808.15	21036.74
808.33	21016.26
808.51	20725.44
808.69	21126.85
808.87	20842.18
809.05	20752.07
809.23	20711.11
809.41	20682.44
809.59	20801.22
809.77	20758.21
809.95	20596.42
810.13	20661.96
810.31	20541.13
810.49	20491.98
810.67	20451.02
810.84	20387.53
811.02	20377.29
811.20	20246.22
811.38	20201.16
811.56	20408.01
811.74	20074.19
811.92	20162.25
812.10	20166.35
812.28	19961.55
812.46	19865.30
812.64	20211.40
812.82	19900.11
813.00	20000.46
813.18	19832.53
813.36	19887.82
813.53	19719.89
813.71	19740.37
813.89	19869.39
814.07	19646.16
814.25	19740.37
814.43	19668.69
814.61	19664.60
814.79	19304.15
814.97	19535.57
815.15	19568.34
815.33	19412.70
815.50	19015.39
815.68	19369.69
815.86	19674.84
816.04	19334.87
816.22	19134.17
816.40	19576.53
816.58	19246.81
816.76	19199.71
816.94	19107.55
817.11	19224.28
817.29	18958.05
817.47	19050.21
817.65	18951.90
817.83	18740.96
818.01	18992.86
818.19	19005.15
818.37	18769.63
818.54	18775.78
818.72	18538.21
818.90	18849.50
819.08	18626.28
819.26	18767.59
819.44	18423.53
819.62	18624.23
819.80	18421.48
819.97	18585.32
820.15	18415.34
820.33	18306.79
820.51	18525.93
820.69	18157.29
820.87	18376.42
821.05	18712.29
821.22	18314.98
821.40	18439.91
821.58	18151.15
821.76	18317.03
821.94	18269.93
822.12	18165.48
822.29	18323.18
822.47	18118.38
822.65	18159.34
822.83	18079.47
823.01	17991.41
823.19	18007.79
823.36	18054.89
823.54	18167.53
823.72	18054.89
823.90	18108.14
824.08	17612.53
824.25	17905.39
824.43	17739.51
824.61	17815.28
824.79	17733.36
824.97	17708.79
825.15	17741.55
825.32	17602.29
825.50	17458.93
825.68	17731.31
825.86	17540.85
826.04	17663.73
826.21	17544.95
826.39	17503.99
826.57	17542.90
826.75	17653.49
826.93	17247.99
827.10	17233.66
827.28	17383.16
827.46	17553.14
827.64	17082.11
827.81	17327.86
827.99	17469.17
828.17	17129.21
828.35	17100.54
828.53	17039.10
828.70	17098.49
828.88	17147.64
829.06	16914.17
829.24	17116.92
829.41	16948.99
829.59	16844.54
829.77	17098.49
829.95	16895.74
830.12	17028.86
830.30	16817.92
830.48	16774.91
830.66	16877.31
830.84	16967.42
831.01	16670.47
831.19	16795.39
831.37	16545.54
831.55	16555.78
831.72	16699.14
831.90	16457.48
832.08	16533.25
832.25	16494.34
832.43	16422.66
832.61	16514.82
832.79	16273.16
832.96	16363.27
833.14	16406.28
833.32	16617.22
833.50	16371.46
833.67	16215.82
833.85	16271.11
834.03	16277.26
834.20	16285.45
834.38	16209.67
834.56	16232.20
834.74	16137.99
834.91	16078.60
835.09	16125.71
835.27	15832.85
835.44	16088.84
835.62	16140.04
835.80	15935.24
835.98	16056.08
836.15	16183.05
836.33	16033.55
836.51	16004.88
836.68	15820.56
836.86	15968.01
837.04	16092.94
837.21	15695.63
837.39	15908.62
837.57	15849.23
837.75	16008.97
837.92	15769.36
838.10	15875.85
838.28	15673.10
838.45	15666.96
838.63	15517.46
838.81	15650.58
838.98	15593.23
839.16	15456.02
839.34	15484.69
839.51	15613.71
839.69	15154.97
839.87	15359.77
840.04	15421.20
840.22	15429.40
840.40	15456.02
840.57	15267.61
840.75	15380.25
840.93	15064.86
841.10	15259.42
841.28	15283.99
841.46	15382.29
841.63	15236.89
841.81	15271.70
841.98	15279.89
842.16	15251.22
842.34	15017.75
842.51	15142.68
842.69	15308.57
842.87	14827.29
843.04	15111.96
843.22	15109.91
843.40	14984.99
843.57	14950.17
843.75	15271.70
843.92	15136.54
844.10	15107.87
844.28	14999.32
844.45	15046.43
844.63	14765.85
844.81	14915.36
844.98	15058.71
845.16	14772.00
845.33	14806.81
845.51	14798.62
845.69	14669.60
845.86	14626.59
846.04	14681.89
846.21	14559.01
846.39	14589.73
846.57	14632.74
846.74	14616.35
846.92	14425.89
847.09	14501.67
847.27	14479.14
847.45	14554.91
847.62	14718.75
847.80	14546.72
847.97	14403.36
848.15	14573.35
848.32	14380.84
848.50	14677.79
848.68	14153.51
848.85	14319.40
849.03	14204.71
849.20	14362.40
849.38	14292.77
849.56	14251.81
849.73	14159.66
849.91	14219.05
850.08	14323.49
850.26	13985.58
850.43	14176.04
850.61	14110.50
850.78	14022.44
850.96	14071.59
851.14	14063.40
851.31	14237.48
851.49	14020.39
851.66	13879.08
851.84	14055.21
852.01	14038.83
852.19	13899.56
852.36	13901.61
852.54	13877.04
852.71	14112.55
852.89	13993.77
853.07	14038.83
853.24	13975.34
853.42	13940.52
853.59	13797.17
853.77	14006.06
853.94	13899.56
854.12	13797.17
854.29	13678.38
854.47	13846.32
854.64	13874.99
854.82	13745.97
854.99	13670.19
855.17	13705.01
855.34	13545.27
855.52	13608.75
855.69	13678.38
855.87	13494.07
856.04	13725.49
856.22	13575.98
856.39	13430.58
856.57	13608.75
856.74	13377.33
856.92	13504.31
857.09	13426.48
857.27	13612.85
857.44	13242.17
857.62	13342.52
857.79	13487.92
857.97	13418.29
858.14	13219.64
858.32	13412.15
858.49	13199.16
858.67	13217.59
858.84	13311.80
859.02	13401.91
859.19	13217.59
859.37	13152.06
859.54	13049.66
859.72	13231.93
859.89	12969.79
860.06	13115.19
860.24	13119.29
860.41	13070.14
860.59	12832.57
860.76	12994.36
860.94	12965.69
861.11	13027.13
861.29	12969.79
861.46	12836.67
861.64	12840.76
861.81	12801.85
861.98	12805.95
862.16	13008.70
862.33	12791.61
862.51	12760.89
862.68	12726.08
862.86	12517.18
863.03	12840.76
863.21	12812.09
863.38	12566.34
863.55	12764.99
863.73	12801.85
863.90	12816.19
864.08	12582.72
864.25	12601.15
864.43	12611.39
864.60	12584.77
864.77	12302.15
864.95	12531.52
865.12	12285.76
865.30	12541.76
865.47	12508.99
865.64	12625.73
865.82	12558.14
865.99	12492.61
866.17	12457.79
866.34	12355.40
866.51	12201.80
866.69	12465.99
866.86	12244.81
867.04	12320.58
867.21	12017.48
867.38	12230.47
867.56	12265.28
867.73	12269.38
867.91	12339.01
868.08	12162.89
868.25	11974.47
868.43	11953.99
868.60	12048.20
868.78	12216.13
868.95	12072.78
869.12	11997.00
869.30	11814.73
869.47	12099.40
869.64	11745.10
869.82	11702.09
869.99	11964.23
870.16	11927.37
870.34	11753.29
870.51	11851.60
870.69	11849.55
870.86	11767.63
871.03	11851.60
871.21	11671.37
871.38	11614.03
871.55	11716.43
871.73	11507.54
871.90	11458.39
872.07	11419.47
872.25	11556.69
872.42	11435.86
872.59	11634.51
872.77	11435.86
872.94	11394.90
873.11	11353.94
873.29	11317.08
873.46	11208.53
873.63	11229.01
873.81	11323.22
873.98	11079.51
874.15	11253.59
874.33	11163.48
874.50	11132.76
874.67	11312.98
874.85	11077.46
875.02	11024.22
875.19	10936.15
875.37	10964.82
875.54	10907.48
875.71	11073.37
875.88	10794.84
876.06	10899.29
876.23	10944.34
876.40	10794.84
876.58	10989.40
876.75	11018.07
876.92	10909.53
877.10	10850.14
877.27	10897.24
877.44	10645.34
877.61	10958.68
877.79	10514.27
877.96	10862.43
878.13	10809.18
878.31	10637.15
878.48	10645.34
878.65	10647.39
878.82	10487.65
879.00	10764.12
879.17	10508.13
879.34	10624.86
879.51	10471.26
879.69	10393.44
879.86	10217.32
880.03	10477.41
880.21	10389.35
880.38	10555.23
880.55	10411.87
880.72	10393.44
880.90	10473.31
881.07	10497.89
881.24	10368.87
881.41	10403.68
881.59	10280.80
881.76	10168.16
881.93	10340.19
882.10	10000.23
882.28	10442.59
882.45	10166.12
882.62	10174.31
882.79	10309.47
882.96	10121.06
883.14	10172.26
883.31	10168.16
883.48	10104.68
883.65	10051.43
883.83	10073.96
884.00	10129.25
884.17	9979.75
884.34	10133.35
884.51	10065.77
884.69	10078.05
884.86	10176.36
885.03	9951.08
885.20	9897.83
885.38	9953.13
885.55	9854.83
885.72	9987.94
885.89	9811.82
886.06	10008.42
886.24	10020.71
886.41	9883.50
886.58	9987.94
886.75	9998.18
886.92	9721.71
887.10	9906.02
887.27	9856.87
887.44	9746.28
887.61	10008.42
887.78	9795.43
887.95	9901.93
888.13	9832.30
888.30	9621.36
888.47	9631.60
888.64	9869.16
888.81	9504.62
888.99	9701.23
889.16	9521.01
889.33	9719.66
889.50	9578.35
889.67	9592.69
889.84	9621.36
890.01	9475.95
890.19	9432.94
890.36	9351.03
890.53	9553.77
890.70	9451.38
890.87	9498.48
891.04	9459.57
891.22	9418.61
891.39	9576.30
891.56	9330.55
891.73	9342.83
891.90	9434.99
892.07	9310.07
892.24	9400.18
892.42	9267.06
892.59	9330.55
892.76	9340.79
892.93	9166.71
893.10	9299.83
893.27	9328.50
893.44	9326.45
893.61	9166.71
893.79	9154.42
893.96	9095.03
894.13	9176.95
894.30	9332.59
894.47	9308.02
894.64	9213.81
894.81	9361.27
894.98	9267.06
895.15	9142.13
895.33	9056.12
895.50	8998.77
895.67	9150.32
895.84	9119.60
896.01	9135.99
896.18	9150.32
896.35	9213.81
896.52	9072.50
896.69	8951.67
896.86	9166.71
897.04	9301.87
897.21	9148.28
897.38	9115.51
897.55	8908.66
897.72	9025.40
897.89	9170.80
898.06	9074.55
898.23	8951.67
898.40	9105.27
898.57	9113.46
898.74	9078.65
898.91	8916.86
899.08	9025.40
899.26	9017.21
899.43	9047.93
899.60	9015.16
899.77	8963.96
899.94	8867.70
900.11	8767.35
900.28	8980.34
900.45	8806.27
900.62	8763.26
900.79	8839.03
900.96	8791.93
901.13	8748.92
901.30	8773.50
901.47	8734.59
901.64	8853.37
901.81	8834.94
901.98	8861.56
902.15	8761.21
902.32	8804.22
902.49	8972.15
902.66	8683.39
902.83	8951.67
903.01	8853.37
903.18	8822.65
903.35	8810.36
903.52	8677.24
903.69	8916.86
903.86	9004.92
904.03	8769.40
904.20	8718.20
904.37	8753.02
904.54	8800.12
904.71	8841.08
904.88	8879.99
905.05	8617.85
905.22	8710.01
905.39	8712.06
905.56	8689.53
905.73	8685.44
905.90	8718.20
906.07	8589.18
906.24	8855.42
906.41	8787.83
906.58	8681.34
906.75	8695.68
906.92	8703.87
907.09	8673.15
907.26	8695.68
907.43	8695.68
907.60	8564.61
907.77	8738.68
907.93	8533.89
908.10	8806.27
908.27	8650.62
908.44	8683.39
908.61	8486.78
908.78	8683.39
908.95	8632.19
909.12	8527.74
909.29	8658.81
909.46	8732.54
909.63	8615.80
909.80	8679.29
909.97	8597.37
910.14	8552.32
910.31	8499.07
910.48	8656.76
910.65	8413.06
910.82	8527.74
910.99	8521.60
911.16	8415.10
911.33	8482.69
911.50	8363.90
911.66	8398.72
911.83	8408.96
912.00	8341.38
912.17	8509.31
912.34	8413.06
912.51	8284.03
912.68	8427.39
912.85	8421.25
913.02	8251.27
913.19	8347.52
913.36	8427.39
913.53	8347.52
913.70	8286.08
913.86	8269.70
914.03	8089.48
914.20	8253.31
914.37	8132.48
914.54	8171.40
914.71	8218.50
914.88	8187.78
915.05	8054.66
915.22	8167.30
915.39	8044.42
915.55	8198.02
915.72	7944.07
915.89	8114.05
916.06	8077.19
916.23	8052.61
916.40	7972.74
916.57	7810.95
916.74	7901.06
916.91	7798.66
917.07	7827.34
917.24	7839.62
917.41	7894.92
917.58	7786.38
917.75	7786.38
917.92	7694.22
918.09	7743.37
918.26	7718.79
918.42	7718.79
918.59	7614.35
918.76	7571.34
918.93	7626.64
919.10	7600.01
919.27	7632.78
919.44	7585.68
919.60	7628.68
919.77	7610.25
919.94	7546.76
920.11	7450.51
920.28	7604.11
920.45	7372.69
920.61	7380.88
920.78	7301.01
920.95	7288.72
921.12	7489.42
921.29	7446.41
921.46	7409.55
921.62	7311.25
921.79	7274.38
921.96	7223.19
922.13	7190.42
922.30	7077.78
922.47	7303.06
922.63	6989.72
922.80	7239.57
922.97	7059.35
923.14	6961.05
923.31	7030.68
923.47	7042.96
923.64	7055.25
923.81	7090.07
923.98	6928.28
924.15	6928.28
924.32	7096.21
924.48	6983.57
924.65	6905.75
924.82	6737.82
924.99	6803.35
925.15	6743.96
925.32	6758.30
925.49	6741.91
925.66	6746.01
925.83	6727.58
925.99	6602.65
926.16	6516.64
926.33	6647.71
926.50	6479.77
926.67	6639.51
926.83	6512.54
927.00	6533.02
927.17	6449.05
927.34	6430.62
927.50	6260.64
927.67	6420.38
927.84	6246.30
928.01	6256.54
928.17	6317.98
928.34	6375.33
928.51	6350.75
928.68	6266.78
928.84	6320.03
929.01	6121.38
929.18	6047.65
929.35	6170.53
929.51	6025.12
929.68	6041.51
929.85	6096.80
930.02	6068.13
930.18	6088.61
930.35	6119.33
930.52	5969.83
930.69	5832.62
930.85	5892.01
931.02	5937.06
931.19	5803.94
931.36	5715.88
931.52	5855.14
931.69	5781.42
931.86	5756.84
932.02	5717.93
932.19	5728.17
932.36	5599.15
932.53	5595.05
932.69	5615.53
932.86	5701.54
933.03	5552.04
933.19	5476.27
933.36	5568.43
933.53	5443.50
933.70	5586.86
933.86	5461.93
934.03	5296.05
934.20	5291.95
934.36	5425.07
934.53	5197.74
934.70	5294.00
934.86	5216.18
935.03	5228.46
935.20	5167.03
935.36	4972.47
935.53	5074.87
935.70	5117.87
935.86	4988.85
936.03	5023.67
936.20	5040.05
936.36	4908.98
936.53	4800.44
936.70	4868.02
936.86	4796.34
937.03	4882.36
937.20	4734.90
937.36	4732.86
937.53	4550.59
937.70	4720.57
937.86	4566.97
938.03	4505.53
938.20	4609.98
938.36	4370.37
938.53	4478.91
938.70	4356.03
938.86	4317.12
939.03	4241.34
939.20	4184.00
939.36	4227.01
939.53	4104.13
939.70	4331.45
939.86	4126.66
940.03	4075.46
940.19	4024.26
940.36	3985.35
940.53	4020.16
940.69	3858.37
940.86	3848.13
941.03	3993.54
941.19	3805.13
941.36	3821.51
941.52	3774.41
941.69	3737.54
941.86	3753.93
942.02	3653.58
942.19	3704.78
942.35	3712.97
942.52	3540.94
942.69	3573.71
942.85	3456.97
943.02	3508.17
943.18	3467.21
943.35	3391.44
943.52	3403.72
943.68	3508.17
943.85	3430.35
944.01	3385.29
944.18	3436.49
944.35	3379.15
944.51	3360.72
944.68	3258.32
944.84	3291.09
945.01	3264.46
945.17	3262.41
945.34	3356.62
945.51	3266.51
945.67	3266.51
945.84	3209.17
946.00	3147.73
946.17	3379.15
946.33	3174.35
946.50	3196.88
946.67	3223.50
946.83	3227.60
947.00	3170.26
947.16	3078.10
947.33	3284.94
947.49	3061.71
947.66	3119.06
947.82	3198.93
947.99	3049.43
948.16	3102.67
948.32	3088.34
948.49	3088.34
948.65	3225.55
948.82	3053.52
948.98	3110.86
949.15	3018.71
949.31	3182.54
949.48	3147.73
949.64	3053.52
949.81	3063.76
949.97	3067.86
950.14	3153.87
950.30	3051.47
950.47	2998.23
950.63	3102.67
950.80	3006.42
950.96	3131.34
951.13	3069.91
951.30	3069.91
951.46	3147.73
951.63	3110.86
951.79	3104.72
951.96	3262.41
952.12	3071.95
952.29	3071.95
952.45	3018.71
952.62	3004.37
952.78	3143.63
952.94	3051.47
953.11	3178.45
953.27	2969.55
953.44	3078.10
953.60	3076.05
953.77	3131.34
953.93	3049.43
954.10	3049.43
954.26	3057.62
954.43	3108.82
954.59	3028.95
954.76	3106.77
954.92	3039.19
955.09	3016.66
955.25	3078.10
955.42	2940.88
955.58	3080.14
955.75	2987.99
955.91	3061.71
956.07	3076.05
956.24	2994.13
956.40	2977.75
956.57	3026.90
956.73	2969.55
956.90	3055.57
957.06	2977.75
957.23	2957.27
957.39	3020.75
957.56	3104.72
957.72	3014.61
957.88	2969.55
958.05	3035.09
958.21	3045.33
958.38	2998.23
958.54	3014.61
958.71	3080.14
958.87	3004.37
959.03	2838.48
959.20	2967.51
959.36	2867.16
959.53	2979.79
959.69	2944.98
959.85	3000.27
960.02	2908.12
960.18	2881.49
960.35	2889.68
960.51	2895.83
960.68	3041.23
960.84	2953.17
961.00	2969.55
961.17	2953.17
961.33	2924.50
961.50	3004.37
961.66	2992.08
961.82	2856.92
961.99	2895.83
962.15	2957.27
962.31	2815.96
962.48	2936.79
962.64	2881.49
962.81	2801.62
962.97	2949.08
963.13	2895.83
963.30	2832.34
963.46	2904.02
963.62	2901.97
963.79	2932.69
963.95	2895.83
964.12	2752.47
964.28	2879.44
964.44	2830.29
964.61	2801.62
964.77	2951.12
964.93	2848.72
965.10	2824.15
965.26	2768.85
965.42	2807.77
965.59	2861.01
965.75	2809.81
965.92	2840.53
966.08	2830.29
966.24	2770.90
966.41	2768.85
966.57	2889.68
966.73	2871.25
966.90	2856.92
967.06	2858.96
967.22	2713.56
967.39	2785.24
967.55	2762.71
967.71	2709.46
967.88	2760.66
968.04	2811.86
968.20	2740.18
968.37	2682.84
968.53	2758.61
968.69	2803.67
968.85	2658.26
969.02	2809.81
969.18	2797.53
969.34	2729.94
969.51	2785.24
969.67	2813.91
969.83	2699.22
970.00	2822.10
970.16	2684.89
970.32	2777.05
970.48	2777.05
970.65	2709.46
970.81	2662.36
970.97	2793.43
971.14	2658.26
971.30	2748.37
971.46	2654.17
971.63	2668.50
971.79	2748.37
971.95	2721.75
972.11	2576.34
972.28	2662.36
972.44	2705.37
972.60	2697.17
972.76	2699.22
972.93	2715.61
973.09	2725.85
973.25	2596.82
973.42	2707.41
973.58	2660.31
973.74	2672.60
973.90	2725.85
974.07	2557.91
974.23	2625.50
974.39	2660.31
974.55	2760.66
974.72	2588.63
974.88	2578.39
975.04	2578.39
975.20	2564.06
975.37	2654.17
975.53	2562.01
975.69	2652.12
975.85	2586.58
976.01	2648.02
976.18	2648.02
976.34	2615.26
976.50	2551.77
976.66	2580.44
976.83	2527.19
976.99	2670.55
977.15	2551.77
977.31	2576.34
977.47	2637.78
977.64	2643.93
977.80	2527.19
977.96	2580.44
978.12	2543.58
978.29	2551.77
978.45	2639.83
978.61	2562.01
978.77	2435.03
978.93	2533.34
979.10	2607.06
979.26	2508.76
979.42	2533.34
979.58	2482.14
979.74	2535.39
979.91	2508.76
980.07	2449.37
980.23	2523.10
980.39	2463.71
980.55	2559.96
980.71	2545.63
980.88	2451.42
981.04	2516.95
981.20	2441.18
981.36	2551.77
981.52	2590.68
981.68	2451.42
981.85	2490.33
982.01	2428.89
982.17	2457.56
982.33	2498.52
982.49	2435.03
982.65	2443.23
982.82	2488.28
982.98	2455.51
983.14	2389.98
983.30	2439.13
983.46	2455.51
983.62	2475.99
983.79	2430.94
983.95	2381.79
984.11	2277.34
984.27	2412.51
984.43	2408.41
984.59	2340.83
984.75	2414.56
984.91	2455.51
985.08	2387.93
985.24	2236.38
985.40	2351.07
985.56	2353.12
985.72	2428.89
985.88	2432.99
986.04	2299.87
986.20	2404.32
986.37	2310.11
986.53	2336.73
986.69	2430.94
986.85	2340.83
987.01	2377.69
987.17	2357.21
987.33	2328.54
987.49	2281.44
987.65	2338.78
987.82	2324.44
987.98	2375.64
988.14	2357.21
988.30	2340.83
988.46	2265.05
988.62	2332.64
988.78	2318.30
988.94	2351.07
989.10	2303.96
989.26	2332.64
989.42	2361.31
989.59	2310.11
989.75	2269.15
989.91	2394.08
990.07	2187.23
990.23	2220.00
990.39	2254.81
990.55	2303.96
990.71	2320.35
990.87	2205.66
991.03	2353.12
991.19	2256.86
991.35	2263.01
991.51	2303.96
991.67	2236.38
991.83	2252.77
992.00	2312.16
992.16	2295.77
992.32	2246.62
992.48	2277.34
992.64	2236.38
992.80	2260.96
992.96	2279.39
993.12	2265.05
993.28	2320.35
993.44	2168.80
993.60	2224.09
993.76	2201.57
993.92	2273.25
994.08	2185.18
994.24	2209.76
994.40	2240.48
994.56	2203.61
994.72	2260.96
994.88	2156.51
995.04	2138.08
995.20	2199.52
995.36	2316.25
995.52	2140.13
995.68	2166.75
995.84	2189.28
996.00	2209.76
996.16	2213.85
996.32	2203.61
996.48	2123.74
996.64	2228.19
996.80	2097.12
996.96	2250.72
997.12	2166.75
997.28	2197.47
997.44	2099.17
997.60	2119.65
997.76	2228.19
997.92	2117.60
998.08	2136.03
998.24	2115.55
998.40	2158.56
998.56	2224.09
998.72	2142.18
998.88	2201.57
999.04	2099.17
999.20	2191.33
999.36	2138.08
999.52	2138.08
999.68	2074.59
999.84	2090.98
1000.00	2187.23
1000.16	2156.51
1000.32	2109.41
1000.48	2158.56
1000.64	2074.59
1000.80	2127.84
1000.95	2027.49
1001.11	2119.65
1001.27	2115.55
1001.43	2105.31
1001.59	2082.78
1001.75	2109.41
1001.91	2107.36
1002.07	2097.12
1002.23	2023.39
1002.39	2041.82
1002.55	2099.17
1002.71	2160.61
1002.87	2084.83
1003.03	2121.70
1003.19	2076.64
1003.34	2072.54
1003.50	2027.49
1003.66	2125.79
1003.82	2127.84
1003.98	2000.87
1004.14	2021.35
1004.30	2039.78
1004.46	1904.61
1004.62	2072.54
1004.78	2056.16
1004.94	2086.88
1005.09	2047.97
1005.25	2037.73
1005.41	2086.88
1005.57	1966.05
1005.73	2060.26
1005.89	1984.48
1006.05	2127.84
1006.21	2004.96
1006.37	2031.58
1006.52	1996.77
1006.68	1966.05
1006.84	2105.31
1007.00	1986.53
1007.16	2031.58
1007.32	1945.57
1007.48	2017.25
1007.64	2017.25
1007.79	2019.30
1007.95	1933.28
1008.11	2050.02
1008.27	1957.86
1008.43	1978.34
1008.59	1988.58
1008.75	1966.05
1008.91	1996.77
1009.06	1961.95
1009.22	1994.72
1009.38	1957.86
1009.54	2019.30
1009.70	1923.04
1009.86	1957.86
1010.01	1994.72
1010.17	1976.29
1010.33	1949.67
1010.49	1959.91
1010.65	1908.71
1010.81	1992.67
1010.96	1996.77
1011.12	1941.47
1011.28	1902.56
1011.44	1986.53
1011.60	1966.05
1011.76	1980.39
1011.91	1959.91
1012.07	1939.43
1012.23	1902.56
1012.39	1949.67
1012.55	1900.52
1012.71	1953.76
1012.86	1869.80
1013.02	1933.28
1013.18	1877.99
1013.34	2027.49
1013.50	1884.13
1013.65	2015.20
1013.81	1814.50
1013.97	1832.93
1014.13	1900.52
1014.29	1890.28
1014.44	1855.46
1014.60	1839.08
1014.76	1933.28
1014.92	1882.08
1015.07	1886.18
1015.23	1890.28
1015.39	1994.72
1015.55	1939.43
1015.71	1779.68
1015.86	1896.42
1016.02	1892.32
1016.18	1843.17
1016.34	1929.19
1016.49	1931.23
1016.65	1927.14
1016.81	1865.70
1016.97	1867.75
1017.12	1920.99
1017.28	1810.40
1017.44	1814.50
1017.60	1904.61
1017.75	1863.65
1017.91	1955.81
1018.07	1849.32
1018.23	1869.80
1018.38	1828.84
1018.54	1843.17
1018.70	1902.56
1018.86	1839.08
1019.01	1880.04
1019.17	1869.80
1019.33	1902.56
1019.49	1794.02
1019.64	1880.04
1019.80	1890.28
1019.96	1871.84
1020.12	1845.22
1020.27	1828.84
1020.43	1810.40
1020.59	1884.13
1020.74	1832.93
1020.90	1824.74
1021.06	1800.16
1021.22	1867.75
1021.37	1810.40
1021.53	1877.99
1021.69	1894.37
1021.84	1800.16
1022.00	1839.08
1022.16	1810.40
1022.31	1880.04
1022.47	1820.64
1022.63	1736.68
1022.79	1771.49
1022.94	1732.58
1023.10	1863.65
1023.26	1785.83
1023.41	1828.84
1023.57	1791.97
1023.73	1773.54
1023.88	1783.78
1024.04	1748.97
1024.20	1720.29
1024.35	1830.88
1024.51	1800.16
1024.67	1783.78
1024.82	1820.64
1024.98	1738.73
1025.14	1746.92
1025.29	1789.92
1025.45	1787.88
1025.61	1705.96
1025.76	1822.69
1025.92	1781.73
1026.08	1732.58
1026.23	1791.97
1026.39	1804.26
1026.55	1736.68
1026.70	1810.40
1026.86	1773.54
1027.02	1789.92
1027.17	1765.35
1027.33	1755.11
1027.48	1695.72
1027.64	1689.57
1027.80	1761.25
1027.95	1757.16
1028.11	1724.39
1028.27	1757.16
1028.42	1757.16
1028.58	1742.82
1028.73	1800.16
1028.89	1734.63
1029.05	1712.10
1029.20	1834.98
>>>>>End Processed Spectral Data<<<<<
