SpectraSuite Data File
++++++++++++++++++++++++++++++++++++
Date: Tue Jun 13 11:56:49 CEST 2017
User: INFO_000
Dark Spectrum Present: No
Reference Spectrum Present: No
Number of Sampled Component Spectra: 1
Spectrometers: USB4H00879
Integration Time (usec): 30000 (USB4H00879)
Spectra Averaged: 1 (USB4H00879)
Boxcar Smoothing: 0 (USB4H00879)
Correct for Electrical Dark: No (USB4H00879)
Strobe/Lamp Enabled: No (USB4H00879)
Correct for Detector Non-linearity: No (USB4H00879)
Correct for Stray Light: No (USB4H00879)
Number of Pixels in Processed Spectrum: 3648
>>>>>Begin Processed Spectral Data<<<<<
345.13	1363.95
345.34	1363.95
345.56	1363.95
345.78	1343.47
345.99	1368.04
346.21	1517.54
346.42	1589.22
346.64	1574.89
346.86	1572.84
347.07	1503.21
347.29	1464.30
347.50	1480.68
347.72	1499.11
347.94	1499.11
348.15	1456.11
348.37	1542.12
348.59	1546.22
348.80	1478.63
349.02	1646.57
349.23	1626.09
349.45	1607.66
349.67	1621.99
349.88	1601.51
350.10	1619.94
350.31	1626.09
350.53	1585.13
350.75	1630.18
350.96	1640.42
351.18	1589.22
351.39	1587.18
351.61	1605.61
351.82	1626.09
352.04	1662.95
352.26	1552.36
352.47	1642.47
352.69	1603.56
352.90	1597.42
353.12	1675.24
353.34	1566.70
353.55	1626.09
353.77	1644.52
353.98	1617.90
354.20	1578.98
354.41	1691.62
354.63	1658.85
354.85	1611.75
355.06	1648.61
355.28	1621.99
355.49	1644.52
355.71	1626.09
355.92	1636.33
356.14	1654.76
356.35	1581.03
356.57	1646.57
356.79	1656.81
357.00	1652.71
357.22	1652.71
357.43	1630.18
357.65	1683.43
357.86	1599.46
358.08	1589.22
358.29	1597.42
358.51	1708.01
358.72	1662.95
358.94	1693.67
359.16	1665.00
359.37	1679.33
359.59	1644.52
359.80	1634.28
360.02	1599.46
360.23	1720.29
360.45	1724.39
360.66	1611.75
360.88	1718.25
361.09	1701.86
361.31	1652.71
361.52	1740.77
361.74	1734.63
361.95	1742.82
362.17	1621.99
362.38	1757.16
362.60	1728.49
362.81	1662.95
363.03	1652.71
363.24	1701.86
363.46	1773.54
363.67	1726.44
363.89	1679.33
364.10	1732.58
364.32	1708.01
364.53	1767.40
364.75	1605.61
364.96	1710.05
365.18	1726.44
365.39	1656.81
365.61	1665.00
365.82	1716.20
366.04	1685.48
366.25	1728.49
366.47	1689.57
366.68	1763.30
366.90	1789.92
367.11	1753.06
367.33	1775.59
367.54	1779.68
367.76	1763.30
367.97	1712.10
368.19	1728.49
368.40	1867.75
368.62	1611.75
368.83	1742.82
369.05	1769.44
369.26	1740.77
369.48	1703.91
369.69	1685.48
369.91	1734.63
370.12	1685.48
370.33	1751.01
370.55	1669.09
370.76	1744.87
370.98	1826.79
371.19	1765.35
371.41	1777.64
371.62	1722.34
371.84	1771.49
372.05	1753.06
372.27	1738.73
372.48	1757.16
372.69	1800.16
372.91	1773.54
373.12	1826.79
373.34	1738.73
373.55	1812.45
373.77	1865.70
373.98	1822.69
374.20	1804.26
374.41	1818.60
374.62	1751.01
374.84	1812.45
375.05	1861.60
375.27	1875.94
375.48	1806.31
375.70	1888.23
375.91	1871.84
376.12	1945.57
376.34	1781.73
376.55	1890.28
376.77	1908.71
376.98	1888.23
377.19	1785.83
377.41	1871.84
377.62	1880.04
377.84	1882.08
378.05	1925.09
378.27	1890.28
378.48	1869.80
378.69	1970.15
378.91	1877.99
379.12	1972.19
379.34	1865.70
379.55	1908.71
379.76	1945.57
379.98	1920.99
380.19	1959.91
380.41	1894.37
380.62	1982.43
380.83	1916.90
381.05	1857.51
381.26	1994.72
381.47	1898.47
381.69	1980.39
381.90	2019.30
382.12	1855.46
382.33	1961.95
382.54	1937.38
382.76	2021.35
382.97	1884.13
383.19	1904.61
383.40	1955.81
383.61	1927.14
383.83	1990.63
384.04	2031.58
384.25	1996.77
384.47	1994.72
384.68	2025.44
384.89	2002.91
385.11	1980.39
385.32	2037.73
385.54	2064.35
385.75	2033.63
385.96	2031.58
386.18	2074.59
386.39	2078.69
386.60	1986.53
386.82	2070.50
387.03	2133.98
387.24	2131.94
387.46	2070.50
387.67	2136.03
387.88	2099.17
388.10	2142.18
388.31	2154.46
388.52	2146.27
388.74	2062.30
388.95	2158.56
389.16	2156.51
389.38	2148.32
389.59	2140.13
389.80	2140.13
390.02	2101.22
390.23	2172.89
390.44	2236.38
390.66	2207.71
390.87	2136.03
391.08	2246.62
391.30	2217.95
391.51	2291.68
391.72	2236.38
391.94	2267.10
392.15	2254.81
392.36	2215.90
392.58	2238.43
392.79	2246.62
393.00	2246.62
393.22	2320.35
393.43	2340.83
393.64	2371.55
393.85	2398.17
394.07	2267.10
394.28	2342.88
394.49	2359.26
394.71	2197.47
394.92	2314.20
395.13	2283.49
395.35	2318.30
395.56	2342.88
395.77	2432.99
395.98	2385.88
396.20	2381.79
396.41	2463.71
396.62	2422.75
396.84	2410.46
397.05	2447.32
397.26	2449.37
397.47	2480.09
397.69	2379.74
397.90	2500.57
398.11	2486.23
398.32	2430.94
398.54	2490.33
398.75	2486.23
398.96	2543.58
399.18	2555.86
399.39	2502.62
399.60	2562.01
399.81	2508.76
400.03	2529.24
400.24	2619.35
400.45	2494.43
400.66	2676.70
400.88	2564.06
401.09	2650.07
401.30	2588.63
401.51	2713.56
401.73	2568.15
401.94	2627.54
402.15	2678.74
402.36	2631.64
402.58	2641.88
402.79	2645.98
403.00	2727.89
403.21	2688.98
403.43	2637.78
403.64	2758.61
403.85	2633.69
404.06	2725.85
404.27	2625.50
404.49	2668.50
404.70	2645.98
404.91	2867.16
405.12	2711.51
405.34	2762.71
405.55	2770.90
405.76	2797.53
405.97	2742.23
406.19	2893.78
406.40	2828.24
406.61	2838.48
406.82	2781.14
407.03	2803.67
407.25	2852.82
407.46	2873.30
407.67	2844.63
407.88	2875.35
408.09	2820.05
408.31	2856.92
408.52	2844.63
408.73	2871.25
408.94	2775.00
409.15	2947.03
409.37	2992.08
409.58	2947.03
409.79	2930.64
410.00	2904.02
410.21	2967.51
410.43	3045.33
410.64	2928.60
410.85	3039.19
411.06	3104.72
411.27	3016.66
411.48	3076.05
411.70	3039.19
411.91	2987.99
412.12	3012.56
412.33	3037.14
412.54	3164.11
412.76	3078.10
412.97	3108.82
413.18	2996.18
413.39	3129.30
413.60	3121.10
413.81	3037.14
414.03	3055.57
414.24	3137.49
414.45	3184.59
414.66	3119.06
414.87	3254.22
415.08	3170.26
415.30	3078.10
415.51	3160.02
415.72	3063.76
415.93	3168.21
416.14	3286.99
416.35	3315.66
416.56	3198.93
416.78	3198.93
416.99	3274.70
417.20	3170.26
417.41	3200.98
417.62	3321.81
417.83	3319.76
418.04	3241.93
418.26	3282.89
418.47	3444.68
418.68	3416.01
418.89	3375.05
419.10	3506.12
419.31	3370.96
419.52	3413.96
419.73	3440.59
419.95	3522.51
420.16	3465.16
420.37	3487.69
420.58	3467.21
420.79	3362.76
421.00	3438.54
421.21	3573.71
421.42	3497.93
421.63	3643.34
421.85	3588.04
422.06	3545.03
422.27	3465.16
422.48	3633.10
422.69	3573.71
422.90	3643.34
423.11	3698.63
423.32	3737.54
423.53	3776.45
423.75	3692.49
423.96	3858.37
424.17	3758.02
424.38	3852.23
424.59	3786.69
424.80	3882.95
425.01	3753.93
425.22	3854.28
425.43	3815.37
425.64	4018.11
425.85	3917.76
426.06	3993.54
426.28	4016.07
426.49	4048.83
426.70	3925.96
426.91	4040.64
427.12	4067.27
427.33	3895.24
427.54	3956.68
427.75	3997.64
427.96	4161.47
428.17	4087.75
428.38	4151.23
428.59	4138.94
428.80	4057.03
429.01	4136.90
429.23	4124.61
429.44	4304.83
429.65	4227.01
429.86	4294.59
430.07	4327.36
430.28	4282.30
430.49	4362.17
430.70	4501.44
430.91	4401.08
431.12	4458.43
431.33	4476.86
431.54	4462.52
431.75	4462.52
431.96	4536.25
432.17	4552.63
432.38	4450.24
432.59	4540.35
432.80	4673.46
433.01	4659.13
433.22	4554.68
433.43	4657.08
433.64	4622.27
433.85	4542.39
434.06	4675.51
434.27	4566.97
434.49	4657.08
434.70	4831.16
434.91	4868.02
435.12	4855.73
435.33	4782.01
435.54	4806.58
435.75	4655.03
435.96	4726.71
436.17	4734.90
436.38	4812.73
436.59	4861.88
436.80	4935.60
437.01	5076.91
437.22	4951.99
437.43	4833.21
437.64	4798.39
437.85	4999.09
438.06	4978.61
438.27	5087.15
438.48	5089.20
438.69	5171.12
438.90	5105.59
439.11	4908.98
439.32	5074.87
439.53	5222.32
439.74	5103.54
439.95	5150.64
440.16	5111.73
440.37	5212.08
440.57	5078.96
440.78	5246.90
440.99	5128.11
441.20	5259.18
441.41	5343.15
441.62	5248.94
441.83	5054.39
442.04	5445.55
442.25	5431.21
442.46	5300.14
442.67	5521.32
442.88	5619.63
443.09	5314.48
443.30	5406.64
443.51	5506.99
443.72	5656.49
443.93	5496.75
444.14	5615.53
444.35	5275.57
444.56	5603.24
444.77	5801.90
444.98	5523.37
445.19	5662.63
445.40	5683.11
445.61	5570.48
445.81	5642.15
446.02	5689.26
446.23	5629.87
446.44	5494.70
446.65	5752.74
446.86	5666.73
447.07	5795.75
447.28	6102.95
447.49	5844.90
447.70	5818.28
447.91	5797.80
448.12	5867.43
448.33	5863.33
448.54	6076.32
448.74	5967.78
448.95	5998.50
449.16	5865.38
449.37	6107.04
449.58	5951.40
449.79	6148.00
450.00	6084.52
450.21	6041.51
450.42	6236.06
450.63	6203.30
450.84	6317.98
451.05	6320.03
451.25	6244.26
451.46	6227.87
451.67	6156.19
451.88	6348.70
452.09	6477.73
452.30	6385.57
452.51	6293.41
452.72	6561.69
452.93	6547.36
453.13	6313.89
453.34	6395.81
453.55	6389.66
453.76	6571.93
453.97	6891.41
454.18	6530.97
454.39	6551.45
454.60	6569.88
454.81	6791.06
455.01	6707.10
455.22	6651.80
455.43	6844.31
455.64	6897.56
455.85	7016.34
456.06	7126.93
456.27	6973.33
456.48	6879.13
456.68	6868.89
456.89	6987.67
457.10	7034.77
457.31	7108.50
457.52	7071.64
457.73	7178.13
457.94	7315.34
458.14	7028.63
458.35	7303.06
458.56	7202.71
458.77	7186.32
458.98	7315.34
459.19	7309.20
459.39	7473.04
459.60	7544.72
459.81	7495.57
460.02	7528.33
460.23	7626.64
460.44	7681.93
460.65	7808.90
460.85	7649.16
461.06	7874.44
461.27	7630.73
461.48	7950.21
461.69	8038.28
461.89	7683.98
462.10	7741.32
462.31	7714.70
462.52	7946.12
462.73	8021.89
462.94	8148.87
463.14	8036.23
463.35	8142.72
463.56	8478.59
463.77	8413.06
463.98	8044.42
464.18	8202.11
464.39	8380.29
464.60	8501.12
464.81	8523.65
465.02	8443.78
465.23	8552.32
465.43	8767.35
465.64	8689.53
465.85	8613.76
466.06	8632.19
466.27	8853.37
466.47	9000.82
466.68	8728.44
466.89	8875.90
467.10	8978.30
467.30	8882.04
467.51	9162.61
467.72	9332.59
467.93	8918.90
468.14	9201.52
468.34	9336.69
468.55	9281.39
468.76	9103.22
468.97	9084.79
469.17	9490.29
469.38	9459.57
469.59	9779.05
469.80	9498.48
470.01	9693.04
470.21	9549.68
470.42	9781.10
470.63	9863.02
470.84	9744.24
471.04	10174.31
471.25	10006.38
471.46	10098.53
471.67	10192.74
471.87	10004.33
472.08	10205.03
472.29	10442.59
472.50	10119.01
472.70	10241.89
472.91	10338.15
473.12	10866.52
473.33	10446.69
473.53	10829.66
473.74	10467.17
473.95	10913.63
474.16	11040.60
474.36	11011.93
474.57	11067.22
474.78	11245.40
474.99	11022.17
475.19	11265.88
475.40	11444.05
475.61	11466.58
475.81	11556.69
476.02	11810.64
476.23	11515.73
476.44	11706.19
476.64	11816.78
476.85	12035.91
477.06	11796.30
477.27	12105.54
477.47	12148.55
477.68	12119.88
477.89	12263.24
478.09	12371.78
478.30	12402.50
478.51	12406.59
478.71	12644.16
478.92	12615.49
479.13	12721.98
479.34	12836.67
479.54	12797.76
479.75	12992.31
479.96	13117.24
480.16	13233.97
480.37	13209.40
480.58	13446.96
480.78	13541.17
480.99	13375.28
481.20	13604.66
481.41	13590.32
481.61	13623.09
481.82	13844.27
482.03	13606.70
482.23	13745.97
482.44	14217.00
482.65	14026.54
482.85	14227.24
483.06	14339.88
483.27	14200.62
483.47	14315.30
483.68	14085.93
483.89	14556.96
484.09	14567.20
484.30	14706.46
484.51	14798.62
484.71	14952.22
484.92	14763.81
485.13	15040.28
485.33	15046.43
485.54	15163.16
485.75	15322.90
485.95	15249.18
486.16	15343.38
486.37	15396.63
486.57	15529.75
486.78	15687.44
486.98	15832.85
487.19	15789.84
487.40	15841.04
487.60	16000.78
487.81	16189.19
488.02	16113.42
488.22	16107.27
488.43	16287.50
488.64	16301.83
488.84	16555.78
489.05	16488.20
489.25	16822.02
489.46	16877.31
489.67	16785.15
489.87	17014.52
490.08	17024.76
490.29	16975.61
490.49	17241.85
490.70	17141.50
490.90	17379.06
491.11	17346.30
491.32	17227.51
491.52	17551.09
491.73	17831.66
491.94	17659.63
492.14	17612.53
492.35	17692.40
492.55	17936.11
492.76	18106.09
492.97	18095.85
493.17	18073.32
493.38	18253.55
493.58	18355.94
493.79	18380.52
494.00	18560.74
494.20	18345.70
494.41	18589.41
494.61	18859.74
494.82	18736.87
495.02	18765.54
495.23	18642.66
495.44	18853.60
495.64	19207.90
495.85	19187.42
496.05	19103.45
496.26	19109.60
496.47	19523.29
496.67	19203.80
496.88	19486.42
497.08	19525.33
497.29	19375.83
497.49	19412.70
497.70	19637.97
497.91	19803.86
498.11	19709.65
498.32	20066.00
498.52	19689.17
498.73	20215.50
498.93	20393.67
499.14	20076.24
499.34	20109.01
499.55	20326.09
499.76	20174.54
499.96	20446.92
500.17	20438.73
500.37	20455.11
500.58	20831.94
500.78	20774.60
500.99	20833.99
501.19	20704.96
501.40	20731.59
501.60	20932.29
501.81	21010.11
502.02	20815.55
502.22	20758.21
502.43	21147.33
502.63	21448.38
502.84	21262.01
503.04	21524.15
503.25	21237.44
503.45	21292.73
503.66	21667.51
503.86	21366.46
504.07	21747.38
504.27	21515.96
504.48	22019.76
504.68	21618.36
504.89	21946.03
505.09	22212.27
505.30	21980.85
505.50	22156.97
505.71	21980.85
505.91	22554.28
506.12	22187.69
506.32	22253.23
506.53	22515.37
506.73	22361.77
506.94	22576.81
507.14	22253.23
507.35	22496.94
507.55	22908.58
507.76	22857.38
507.96	22601.38
508.17	22587.05
508.37	22673.06
508.58	22826.66
508.78	23010.98
508.99	23000.74
509.19	22890.15
509.40	22945.44
509.60	23013.02
509.81	22939.30
510.01	23088.80
510.22	23221.92
510.42	23252.64
510.63	23350.94
510.83	23322.27
511.04	23367.32
511.24	23391.90
511.44	23377.56
511.65	23697.05
511.85	23299.74
512.06	23418.52
512.26	23559.83
512.47	23871.12
512.67	23662.23
512.88	23936.66
513.08	23643.80
513.29	24069.78
513.49	23768.73
513.69	24016.53
513.90	23918.23
514.10	24022.67
514.31	24293.01
514.51	24143.50
514.72	24102.54
514.92	24131.22
515.13	24340.11
515.33	24358.54
515.53	24514.19
515.74	24446.60
515.94	24620.68
516.15	24381.07
516.35	24419.98
516.56	24520.33
516.76	24272.53
516.96	24680.07
517.17	24905.35
517.37	24827.53
517.58	25165.44
517.78	24739.46
517.99	25183.87
518.19	25392.76
518.39	25067.14
518.60	25065.09
518.80	25071.23
519.01	25171.58
519.21	25572.99
519.41	25171.58
519.62	25142.91
519.82	25321.09
520.03	25607.80
520.23	25394.81
520.43	25271.93
520.64	25673.34
520.84	25923.19
521.05	25747.06
521.25	25892.47
521.45	25917.04
521.66	26050.16
521.86	26091.12
522.07	25917.04
522.27	26101.36
522.47	26068.59
522.68	26300.01
522.88	26162.80
523.08	26119.79
523.29	26314.35
523.49	26414.70
523.70	26443.37
523.90	26590.83
524.10	26412.65
524.31	26699.37
524.51	26343.02
524.71	26900.07
524.92	26523.24
525.12	26981.99
525.33	26775.14
525.53	27364.96
525.73	27227.74
525.94	27264.61
526.14	26908.26
526.34	27434.59
526.55	27541.08
526.75	27342.43
526.95	27410.01
527.16	27623.00
527.36	27344.48
527.56	27702.87
527.77	27991.64
527.97	28161.62
528.17	27835.99
528.38	28079.70
528.58	28020.31
528.78	28167.76
528.99	27948.63
529.19	28552.78
529.39	28255.82
529.60	28403.28
529.80	28196.43
530.00	28345.94
530.21	28491.34
530.41	28282.45
530.61	27981.40
530.82	28696.14
531.02	28804.68
531.22	28859.98
531.43	28606.03
531.63	29128.26
531.83	29181.51
532.04	29464.13
532.24	29163.08
532.44	29404.74
532.64	29257.28
532.85	29722.17
533.05	29417.02
533.25	29507.13
533.46	29380.16
533.66	29816.38
533.86	29761.08
534.07	29920.82
534.27	29802.04
534.47	30539.31
534.67	30111.28
534.88	29941.30
535.08	30064.18
535.28	30434.86
535.49	30604.84
535.69	30551.60
535.89	30699.05
536.09	30522.93
536.30	30502.45
536.50	30768.68
536.70	30883.37
536.91	30684.72
537.11	31168.04
537.31	30914.09
537.51	30936.62
537.72	31174.18
537.92	31127.08
538.12	31839.77
538.32	31391.26
538.53	31413.79
538.73	31313.44
538.93	31905.31
539.13	31620.64
539.34	31690.27
539.54	31297.06
539.74	31909.40
539.94	31882.78
540.15	31723.04
540.35	32153.11
540.55	31899.16
540.75	31966.74
540.96	31692.32
541.16	32183.83
541.36	31809.05
541.56	32173.59
541.77	32482.83
541.97	32640.53
542.17	32372.24
542.37	32568.85
542.58	32382.48
542.78	32362.00
542.98	32364.05
543.18	32642.57
543.38	32923.15
543.59	33062.41
543.79	32458.26
543.99	32726.54
544.19	32689.68
544.40	32736.78
544.60	33326.60
544.80	33078.79
545.00	32980.49
545.20	32914.95
545.41	33181.19
545.61	33502.72
545.81	33336.84
546.01	33232.39
546.21	33164.81
546.42	33682.94
546.62	33299.97
546.82	33922.55
547.02	33744.38
547.22	33447.43
547.43	33707.52
547.63	33822.20
547.83	33621.50
548.03	33480.19
548.23	33859.07
548.44	33527.30
548.64	33816.06
548.84	33854.97
549.04	33928.70
549.24	34262.52
549.45	34098.68
549.65	33801.72
549.85	34055.67
550.05	34280.95
550.25	33811.96
550.45	34770.41
550.66	34201.08
550.86	34426.35
551.06	34784.75
551.26	34246.13
551.46	34221.56
551.66	34252.28
551.87	34575.86
552.07	34323.96
552.27	34452.98
552.47	34561.52
552.67	34653.68
552.87	34618.86
553.07	34682.35
553.28	34694.64
553.48	35065.32
553.68	34835.95
553.88	35200.49
554.08	34794.99
554.28	35233.25
554.48	35005.93
554.69	34881.00
554.89	35137.00
555.09	34993.64
555.29	35196.39
555.49	35296.74
555.69	35220.97
555.89	35280.36
556.10	35139.05
556.30	35368.42
556.50	35382.76
556.70	34901.48
556.90	34993.64
557.10	35186.15
557.30	35247.59
557.50	35511.78
557.70	35550.69
557.91	35802.59
558.11	35587.55
558.31	35259.88
558.51	35419.62
558.71	35712.48
558.91	35726.81
559.11	35900.89
559.31	35825.12
559.51	35667.42
559.72	35812.83
559.92	35962.33
560.12	35808.73
560.32	36144.60
560.52	35632.61
560.72	35827.17
560.92	35941.85
561.12	35761.63
561.32	36193.75
561.52	35614.18
561.72	36117.98
561.93	35653.09
562.13	36402.64
562.33	35554.79
562.53	36113.88
562.73	35745.25
562.93	36068.83
563.13	36005.34
563.33	36085.21
563.53	36556.24
563.73	35804.64
563.93	36091.35
564.13	36134.36
564.33	36382.16
564.53	36132.31
564.74	36363.73
564.94	35999.19
565.14	36548.05
565.34	36128.22
565.54	36394.45
565.74	36376.02
565.94	37123.53
566.14	36498.90
566.34	36277.72
566.54	36933.07
566.74	36443.60
566.94	36783.57
567.14	36337.11
567.34	36414.93
567.54	36840.91
567.74	36316.63
567.94	36808.14
568.14	37029.32
568.34	36877.77
568.54	36722.13
568.74	37010.89
568.94	36687.31
569.14	36896.20
569.34	36740.56
569.54	36914.64
569.75	36603.35
569.95	37045.71
570.15	37430.72
570.35	37293.51
570.55	36873.68
570.75	36797.90
570.95	37205.45
571.15	37168.58
571.35	36916.68
571.55	37148.11
571.75	37529.03
571.95	37217.74
572.15	37529.03
572.35	37492.16
572.55	37416.39
572.75	37098.95
572.95	37166.54
573.15	37160.39
573.35	37555.65
573.55	37273.03
573.75	37572.03
573.95	38000.06
574.15	37590.47
574.35	37844.41
574.55	37522.88
574.75	37516.74
574.95	37762.50
575.15	37432.77
575.34	37660.10
575.54	37760.45
575.74	38049.21
575.94	37721.54
576.14	37514.69
576.34	38057.40
576.54	37903.81
576.74	38047.16
576.94	37803.46
577.14	37922.24
577.34	37774.78
577.54	37692.86
577.74	38294.97
577.94	38225.34
578.14	38522.29
578.34	38593.97
578.54	37918.14
578.74	37897.66
578.94	38104.51
579.14	38122.94
579.34	38284.73
579.54	38270.39
579.74	38809.01
579.94	38440.37
580.13	38868.40
580.33	38536.63
580.53	38555.06
580.73	38766.00
580.93	38583.73
581.13	38704.56
581.33	38895.02
581.53	38856.11
581.73	38772.14
581.93	39030.19
582.13	38892.97
582.33	38938.03
582.53	38626.74
582.73	39253.42
582.92	39067.05
583.12	39091.63
583.32	38815.15
583.52	39271.85
583.72	39552.42
583.92	39071.15
584.12	39349.67
584.32	39789.98
584.52	39511.46
584.72	39501.22
584.92	39327.14
585.11	39499.17
585.31	39359.91
585.51	39564.71
585.71	39138.73
585.91	39706.02
586.11	39691.68
586.31	39714.21
586.51	39585.19
586.71	39769.51
586.91	39583.14
587.10	39665.06
587.30	39873.95
587.50	40287.64
587.70	40457.62
587.90	39945.63
588.10	39949.73
588.30	39962.01
588.50	39857.57
588.69	39884.19
588.89	39857.57
589.09	40213.91
589.29	39796.13
589.49	40424.86
589.69	40060.32
589.89	40474.01
590.08	40228.25
590.28	40193.43
590.48	40406.42
590.68	40080.80
590.88	40310.17
591.08	40369.56
591.28	39980.45
591.47	40895.89
591.67	40398.23
591.87	40349.08
592.07	40431.00
592.27	40646.04
592.47	40652.18
592.67	40314.26
592.86	40392.09
593.06	40607.12
593.26	40574.36
593.46	40773.01
593.66	40457.62
593.86	40607.12
594.05	40537.49
594.25	40816.02
594.45	40461.72
594.65	40603.03
594.85	40678.80
595.05	40856.98
595.24	40592.79
595.44	40752.53
595.64	40711.57
595.84	41192.84
596.04	40969.61
596.23	40983.95
596.43	41147.79
596.63	40730.00
596.83	40877.46
597.03	40998.29
597.22	41305.48
597.42	41270.67
597.62	41563.53
597.82	41696.64
598.02	41082.25
598.21	41592.20
598.41	41321.87
598.61	41260.43
598.81	41397.64
599.01	41299.34
599.20	41129.36
599.40	41547.14
599.60	41536.90
599.80	41590.15
600.00	41401.74
600.19	41448.84
600.39	41440.65
600.59	41749.89
600.79	41471.37
600.98	41559.43
601.18	41665.92
601.38	42063.23
601.58	42116.48
601.78	41753.99
601.97	41860.48
602.17	42212.73
602.37	41866.63
602.57	41995.65
602.76	42356.09
602.96	41796.99
603.16	42177.92
603.36	41915.78
603.55	42220.92
603.75	42411.38
603.95	42157.44
604.15	42298.75
604.34	42581.37
604.54	42188.16
604.74	42143.10
604.94	42311.03
605.13	42528.12
605.33	42417.53
605.53	42745.20
605.73	42368.38
605.92	42300.79
606.12	42689.91
606.32	42761.59
606.52	42536.31
606.71	42841.46
606.91	42925.42
607.11	42528.12
607.30	42513.78
607.50	43048.30
607.70	42941.81
607.90	42591.61
608.09	42820.98
608.29	42988.91
608.49	42857.84
608.68	43013.49
608.88	42923.38
609.08	42501.50
609.28	42702.20
609.47	42898.80
609.67	43138.41
609.87	42749.30
610.06	43193.71
610.26	43079.02
610.46	42788.21
610.66	42583.41
610.85	42757.49
611.05	42612.09
611.25	42855.79
611.44	42956.14
611.64	43074.93
611.84	42771.83
612.03	42659.19
612.23	42974.58
612.43	42984.82
612.62	42722.68
612.82	43191.66
613.02	43101.55
613.21	43062.64
613.41	42999.15
613.61	42974.58
613.80	42710.39
614.00	42993.01
614.20	42653.05
614.39	42724.72
614.59	43261.29
614.79	42618.23
614.98	42882.42
615.18	43154.80
615.38	42757.49
615.57	43173.23
615.77	42872.18
615.97	42927.47
616.16	42855.79
616.36	43062.64
616.56	43228.52
616.75	42974.58
616.95	42784.12
617.15	42970.48
617.34	42769.78
617.54	42644.85
617.74	42974.58
617.93	42847.60
618.13	42513.78
618.32	43171.18
618.52	42769.78
618.72	42759.54
618.91	42556.79
619.11	42481.02
619.31	42573.17
619.50	42558.84
619.70	42548.60
619.90	42704.24
620.09	43033.97
620.29	42534.26
620.48	42626.42
620.68	43212.14
620.88	42575.22
621.07	42401.14
621.27	43122.03
621.46	42468.73
621.66	42759.54
621.86	42616.18
622.05	42749.30
622.25	43175.28
622.44	42716.53
622.64	42333.56
622.84	42474.87
623.03	42454.39
623.23	42220.92
623.42	42194.30
623.62	42476.92
623.82	42485.11
624.01	42526.07
624.21	42718.58
624.40	42485.11
624.60	42448.25
624.80	42059.13
624.99	42349.95
625.19	42397.05
625.38	42562.93
625.58	42159.48
625.77	42061.18
625.97	42607.99
626.17	41749.89
626.36	42304.89
626.56	42749.30
626.75	41743.75
626.95	42366.33
627.14	41897.34
627.34	42429.82
627.54	42243.45
627.73	42302.84
627.93	42210.68
628.12	41987.46
628.32	42276.22
628.51	42057.09
628.71	41815.43
628.90	41876.86
629.10	41917.82
629.30	42030.46
629.49	42366.33
629.69	42044.80
629.88	41878.91
630.08	42313.08
630.27	42132.86
630.47	42153.34
630.66	42206.59
630.86	42052.99
631.05	41723.27
631.25	42259.84
631.44	42290.55
631.64	42241.40
631.84	42229.12
632.03	42368.38
632.23	42390.91
632.42	42161.53
632.62	42104.19
632.81	41354.63
633.01	42014.08
633.20	42130.81
633.40	42190.20
633.59	42354.04
633.79	41731.46
633.98	41792.90
634.18	42194.30
634.37	41807.23
634.57	41794.95
634.76	42438.01
634.96	41620.87
635.15	41989.50
635.35	41870.72
635.54	41829.76
635.74	42169.72
635.93	41772.42
636.13	41835.91
636.32	41825.67
636.52	41418.12
636.71	41788.80
636.91	41727.36
637.10	41784.71
637.30	42218.88
637.49	41729.41
637.69	41817.47
637.88	41725.32
638.08	41526.66
638.27	42048.89
638.46	42022.27
638.66	41743.75
638.85	41956.74
639.05	41997.70
639.24	41772.42
639.44	41639.30
639.63	41807.23
639.83	41784.71
640.02	41735.56
640.22	41860.48
640.41	42098.05
640.61	41883.01
640.80	42001.79
640.99	41796.99
641.19	41885.06
641.38	41702.79
641.58	41514.37
641.77	41516.42
641.97	41575.81
642.16	42048.89
642.36	41778.56
642.55	41999.74
642.74	41723.27
642.94	42139.00
643.13	41541.00
643.33	42032.51
643.52	42005.89
643.72	41678.21
643.91	41723.27
644.10	41911.68
644.30	41887.10
644.49	41440.65
644.69	41868.67
644.88	41616.77
645.08	41725.32
645.27	41999.74
645.46	41454.98
645.66	42132.86
645.85	41483.66
646.05	41727.36
646.24	42005.89
646.43	41743.75
646.63	41727.36
646.82	42118.53
647.02	41721.22
647.21	41880.96
647.40	41651.59
647.60	42032.51
647.79	41887.10
647.99	41371.02
648.18	41633.16
648.37	42349.95
648.57	41594.25
648.76	41401.74
648.96	41620.87
649.15	42065.28
649.34	41805.19
649.54	41878.91
649.73	41571.72
649.92	41991.55
650.12	41774.47
650.31	41600.39
650.51	41758.08
650.70	42139.00
650.89	41567.62
651.09	41983.36
651.28	41643.40
651.47	42081.66
651.67	41428.36
651.86	42087.81
652.06	41260.43
652.25	41770.37
652.44	41796.99
652.64	41586.05
652.83	41835.91
653.02	41844.10
653.22	41282.95
653.41	41604.49
653.60	41502.09
653.80	41762.18
653.99	42057.09
654.18	41354.63
654.38	41670.02
654.57	41657.73
654.76	41192.84
654.96	41403.78
655.15	41317.77
655.34	41557.38
655.54	41375.11
655.73	41500.04
655.92	41442.70
656.12	41756.03
656.31	41368.97
656.50	41489.80
656.70	41368.97
656.89	41571.72
657.08	41584.01
657.28	41440.65
657.47	41457.03
657.66	41790.85
657.86	41131.40
658.05	41436.55
658.24	41276.81
658.43	41020.81
658.63	41448.84
658.82	41330.06
659.01	41534.85
659.21	41821.57
659.40	41745.80
659.59	41368.97
659.79	41303.43
659.98	41698.69
660.17	41346.44
660.36	41401.74
660.56	41045.39
660.75	41297.29
660.94	41389.45
661.14	41532.81
661.33	41420.17
661.52	40912.27
661.71	41440.65
661.91	41012.62
662.10	41092.49
662.29	41604.49
662.49	41112.97
662.68	41956.74
662.87	41596.29
663.06	41170.32
663.26	41172.36
663.45	41532.81
663.64	41129.36
663.83	41311.63
664.03	41469.32
664.22	41141.64
664.41	41280.91
664.60	41158.03
664.80	41315.72
664.99	41022.86
665.18	41362.82
665.37	41055.63
665.57	41100.68
665.76	40981.90
665.95	41031.05
666.14	41061.77
666.34	41309.58
666.53	41561.48
666.72	41080.21
666.91	41043.34
667.11	40793.49
667.30	41442.70
667.49	41254.28
667.68	41102.73
667.87	40660.37
668.07	41057.68
668.26	41080.21
668.45	40766.87
668.64	40736.15
668.84	41110.92
669.03	40732.05
669.22	40969.61
669.41	40588.69
669.60	41112.97
669.80	40742.29
669.99	40908.18
670.18	40867.22
670.37	40998.29
670.57	41229.71
670.76	41207.18
670.95	40875.41
671.14	40680.85
671.33	40017.31
671.53	40893.84
671.72	40535.45
671.91	40756.63
672.10	40510.87
672.29	40543.64
672.48	40650.13
672.68	40461.72
672.87	40752.53
673.06	40586.64
673.25	40713.62
673.44	40633.75
673.64	40744.34
673.83	40588.69
674.02	40725.91
674.21	40332.70
674.40	40629.65
674.59	39910.82
674.79	40553.88
674.98	40101.28
675.17	40625.56
675.36	40338.84
675.55	40510.87
675.74	39990.69
675.94	40199.58
676.13	40031.65
676.32	40355.22
676.51	40211.87
676.70	40613.27
676.89	40072.60
677.08	40263.07
677.28	39861.66
677.47	40181.15
677.66	40441.24
677.85	40062.36
678.04	40172.96
678.23	40062.36
678.42	40433.05
678.62	39980.45
678.81	40201.63
679.00	40088.99
679.19	40474.01
679.38	39812.51
679.57	40191.39
679.76	39759.27
679.96	39849.38
680.15	40031.65
680.34	40025.50
680.53	40121.76
680.72	39574.95
680.91	40332.70
681.10	39486.89
681.29	40236.44
681.48	39599.52
681.68	39968.16
681.87	39781.79
682.06	39837.09
682.25	39441.83
682.44	39286.18
682.63	39630.24
682.82	39404.97
683.01	39579.04
683.20	39251.37
683.39	39540.13
683.59	39118.25
683.78	39384.49
683.97	39568.80
684.16	38858.16
684.35	38919.60
684.54	38895.02
684.73	39357.86
684.92	39056.81
685.11	39531.94
685.30	38999.47
685.49	39441.83
685.69	39257.51
685.88	39159.21
686.07	39249.32
686.26	38944.17
686.45	39257.51
686.64	39351.72
686.83	39015.85
687.02	38874.54
687.21	39118.25
687.40	38985.13
687.59	38938.03
687.78	38981.04
687.97	38927.79
688.16	39091.63
688.35	38645.17
688.54	38819.25
688.74	38671.79
688.93	38722.99
689.12	38682.03
689.31	38933.93
689.50	38657.46
689.69	38438.33
689.88	38186.43
690.07	38641.07
690.26	38278.58
690.45	39216.55
690.64	38794.67
690.83	38444.47
691.02	38421.94
691.21	38622.64
691.40	38276.54
691.59	38581.68
691.78	38245.82
691.97	38636.98
692.16	38688.18
692.35	38505.91
692.54	38282.68
692.73	38489.52
692.92	38677.94
693.11	38645.17
693.30	38167.99
693.49	38237.62
693.68	38118.84
693.87	38151.61
694.06	38043.07
694.25	37813.70
694.44	38012.35
694.63	37866.94
694.82	38102.46
695.01	37881.28
695.20	37881.28
695.39	38045.12
695.58	38012.35
695.77	37780.93
695.96	37707.20
696.15	37848.51
696.34	37578.18
696.53	37629.38
696.72	37836.22
696.91	37950.91
697.10	37563.84
697.29	37797.31
697.48	37680.58
697.67	37428.68
697.86	37148.11
698.05	37215.69
698.24	37563.84
698.43	37477.83
698.62	37445.06
698.81	36761.04
699.00	37201.35
699.19	36998.60
699.38	37006.80
699.57	37381.57
699.76	37479.88
699.95	37275.08
700.14	37221.83
700.32	36920.78
700.51	37162.44
700.70	37367.24
700.89	37234.12
701.08	37033.42
701.27	36965.84
701.46	36863.44
701.65	36842.96
701.84	36918.73
702.03	36472.28
702.22	36863.44
702.41	36931.02
702.60	37027.28
702.79	36638.16
702.98	36904.40
703.17	36705.74
703.35	36566.48
703.54	36580.82
703.73	36926.92
703.92	36793.81
704.11	36621.78
704.30	36662.74
704.49	36406.74
704.68	35970.52
704.87	36466.13
705.06	36271.57
705.25	36193.75
705.43	36218.33
705.62	36638.16
705.81	36089.31
706.00	36267.48
706.19	35788.25
706.38	35964.38
706.57	36275.67
706.76	36011.48
706.95	36179.42
707.14	35915.23
707.32	35855.84
707.51	35964.38
707.70	35974.62
707.89	35784.16
708.08	35782.11
708.27	35958.24
708.46	35876.32
708.65	35708.38
708.84	35773.92
709.02	35939.80
709.21	35677.66
709.40	35753.44
709.59	35671.52
709.78	35638.75
709.97	35767.77
710.16	35444.20
710.34	35223.01
710.53	35612.13
710.72	35337.70
710.91	35468.77
711.10	35362.28
711.29	35476.96
711.48	35436.00
711.66	35407.33
711.85	35075.56
712.04	35235.30
712.23	34997.74
712.42	35149.29
712.61	35214.82
712.80	34776.56
712.98	34934.25
713.17	34907.63
713.36	35182.06
713.55	35073.51
713.74	35159.53
713.93	35071.46
714.11	34885.10
714.30	34944.49
714.49	34350.58
714.68	34846.19
714.87	34860.52
715.06	34588.14
715.24	34823.66
715.43	34524.66
715.62	34657.78
715.81	34862.57
716.00	34883.05
716.18	34526.71
716.37	34119.16
716.56	34371.06
716.75	34192.89
716.94	34065.91
717.12	34188.79
717.31	34377.20
717.50	34057.72
717.69	34377.20
717.88	34029.05
718.06	34412.02
718.25	34479.60
718.44	34045.43
718.63	33922.55
718.82	33891.83
719.00	33883.64
719.19	33891.83
719.38	34065.91
719.57	33678.85
719.76	33476.10
719.94	33672.70
720.13	33627.65
720.32	33795.58
720.51	33226.24
720.69	33322.50
720.88	33050.12
721.07	33373.70
721.26	33046.02
721.44	32896.52
721.63	33070.60
721.82	33046.02
722.01	32847.37
722.20	32910.86
722.38	32794.12
722.57	32814.60
722.76	32837.13
722.95	32845.32
723.13	32886.28
723.32	32790.03
723.51	32402.96
723.70	32646.67
723.88	32597.52
724.07	32689.68
724.26	32306.71
724.44	32026.14
724.63	32570.90
724.82	32325.14
725.01	32149.01
725.19	32364.05
725.38	32228.88
725.57	32067.09
725.76	32275.99
725.94	31913.50
726.13	32038.42
726.32	31761.95
726.51	32052.76
726.69	32237.08
726.88	32400.91
727.07	32144.92
727.25	31864.35
727.44	32280.08
727.63	31958.55
727.82	32155.16
728.00	31831.58
728.19	32118.29
728.38	32194.07
728.56	31667.74
728.75	31954.46
728.94	31594.01
729.12	31804.95
729.31	31813.15
729.50	31518.24
729.69	31723.04
729.87	31577.63
730.06	31737.37
730.25	31731.23
730.43	31843.87
730.62	31786.52
730.81	31661.60
730.99	31342.11
731.18	31753.76
731.37	31807.00
731.55	31630.88
731.74	31809.05
731.93	31874.59
732.11	31614.49
732.30	31516.19
732.49	31348.26
732.67	31295.01
732.86	31403.55
733.05	31413.79
733.23	30838.31
733.42	31368.74
733.61	31059.49
733.79	31114.79
733.98	31462.94
734.17	31217.19
734.35	31202.85
734.54	31381.03
734.73	31567.39
734.91	31139.36
735.10	31012.39
735.29	31133.22
735.47	30901.80
735.66	31010.34
735.84	31174.18
736.03	30920.23
736.22	30932.52
736.40	31055.40
736.59	30639.66
736.78	30891.56
736.96	30938.66
737.15	30860.84
737.33	30627.37
737.52	30654.00
737.71	30451.25
737.89	30664.24
738.08	30254.64
738.27	30490.16
738.45	30740.01
738.64	30656.04
738.82	30957.10
739.01	30508.59
739.20	30383.66
739.38	30477.87
739.57	30385.71
739.75	30471.73
739.94	30266.93
740.13	30522.93
740.31	30387.76
740.50	30281.27
740.68	30430.77
740.87	30103.09
741.06	30076.47
741.24	30285.36
741.43	30148.15
741.61	30146.10
741.80	29681.21
741.99	29853.24
742.17	30080.56
742.36	30123.57
742.54	29705.79
742.73	29939.26
742.91	30135.86
743.10	30189.11
743.29	29974.07
743.47	29929.02
743.66	29939.26
743.84	29857.34
744.03	29871.67
744.21	29779.51
744.40	29982.26
744.59	29584.96
744.77	29767.23
744.96	29722.17
745.14	29593.15
745.33	29769.27
745.51	29361.73
745.70	29632.06
745.88	29681.21
746.07	29427.26
746.26	29255.23
746.44	29390.40
746.63	29572.67
746.81	29427.26
747.00	29216.32
747.18	29578.81
747.37	29437.50
747.55	29292.10
747.74	29560.38
747.92	29339.20
748.11	29185.60
748.29	29310.53
748.48	29382.21
748.66	29044.29
748.85	29382.21
749.03	29070.92
749.22	29187.65
749.41	28868.17
749.59	28745.29
749.78	28950.09
749.96	28655.18
750.15	28868.17
750.33	28991.05
750.52	28952.13
750.70	28812.87
750.89	28669.51
751.07	28425.81
751.26	28411.47
751.44	28614.22
751.63	28520.01
751.81	28456.53
752.00	28517.96
752.18	28831.30
752.37	28589.64
752.55	28612.17
752.74	28454.48
752.92	28491.34
753.10	28352.08
753.29	28388.94
753.47	28546.64
753.66	27917.91
753.84	28399.18
754.03	28132.95
754.21	28010.07
754.40	28169.81
754.58	28358.22
754.77	28253.78
754.95	27950.68
755.14	27942.49
755.32	28042.84
755.51	27940.44
755.69	28200.53
755.88	27913.81
756.06	28012.12
756.24	27926.10
756.43	27553.37
756.61	27948.63
756.80	27700.83
756.98	27704.92
757.17	27627.10
757.35	28096.08
757.54	27717.21
757.72	27532.89
757.90	27389.53
758.09	27504.22
758.27	27706.97
758.46	27545.18
758.64	27430.49
758.83	27741.78
759.01	27582.04
759.19	27491.93
759.38	27799.13
759.56	27602.52
759.75	27412.06
759.93	27330.14
760.12	27276.90
760.30	27391.58
760.48	27072.10
760.67	27268.70
760.85	27446.88
761.04	27008.61
761.22	27037.28
761.40	27047.52
761.59	27082.34
761.77	27068.00
761.96	27358.81
762.14	26848.87
762.32	26920.55
762.51	26846.82
762.69	26838.63
762.88	26805.86
763.06	26527.34
763.24	27029.09
763.43	26736.23
763.61	26496.62
763.80	26728.04
763.98	26154.61
764.16	26787.43
764.35	26312.30
764.53	26476.14
764.72	26146.42
764.90	26613.35
765.08	26482.28
765.27	26418.80
765.45	26435.18
765.63	26132.08
765.82	26269.30
766.00	26031.73
766.18	26207.86
766.37	26248.82
766.55	26089.07
766.74	26175.09
766.92	25933.43
767.10	26099.31
767.29	25990.77
767.47	25853.56
767.65	26130.03
767.84	26080.88
768.02	25792.12
768.20	25716.34
768.39	25740.92
768.57	25847.41
768.75	26046.07
768.94	25900.66
769.12	25826.93
769.30	25851.51
769.49	25687.67
769.67	25560.70
769.85	25462.40
770.04	25558.65
770.22	25683.58
770.40	25519.74
770.59	25351.81
770.77	25525.88
770.95	25323.13
771.14	25253.50
771.32	25216.64
771.50	25273.98
771.69	25015.94
771.87	25218.69
772.05	25187.97
772.24	24966.79
772.42	25124.48
772.60	25196.16
772.78	25228.93
772.97	24897.16
773.15	25144.96
773.33	25144.96
773.52	24829.57
773.70	24856.20
773.88	25054.85
774.07	24805.00
774.25	24884.87
774.43	24815.24
774.61	24950.40
774.80	25034.37
774.98	25005.70
775.16	25063.04
775.34	24952.45
775.53	24823.43
775.71	25208.45
775.89	24923.78
776.08	24796.81
776.26	25067.14
776.44	24876.68
776.62	24989.31
776.81	24624.78
776.99	25122.43
777.17	24960.64
777.35	25263.74
777.54	24958.60
777.72	24747.65
777.90	24731.27
778.08	25173.63
778.27	24723.08
778.45	24860.29
778.63	25331.33
778.81	24964.74
779.00	25224.83
779.18	25136.77
779.36	25216.64
779.54	25126.53
779.73	25085.57
779.91	24958.60
780.09	25087.62
780.27	25542.27
780.46	25435.77
780.64	25058.95
780.82	24915.59
781.00	24931.97
781.19	25177.73
781.37	25267.84
781.55	25144.96
781.73	25458.30
781.91	25101.95
782.10	25222.78
782.28	25079.43
782.46	25134.72
782.64	25200.26
782.82	25104.00
783.01	25226.88
783.19	25419.39
783.37	25132.67
783.55	25153.15
783.74	25302.65
783.92	24999.55
784.10	25564.79
784.28	25407.10
784.46	24948.36
784.64	24903.30
784.83	24927.88
785.01	25058.95
785.19	24956.55
785.37	25128.58
785.55	24921.73
785.74	25147.01
785.92	25241.21
786.10	24895.11
786.28	24848.00
786.46	25007.75
786.64	25032.32
786.83	24835.72
787.01	24856.20
787.19	25101.95
787.37	24862.34
787.55	24962.69
787.74	24696.46
787.92	24964.74
788.10	24794.76
788.28	24706.70
788.46	24761.99
788.64	24325.77
788.82	24528.52
789.01	24467.08
789.19	24518.28
789.37	24397.45
789.55	24581.77
789.73	24348.30
789.91	24452.75
790.09	24198.80
790.28	24006.29
790.46	24270.48
790.64	24487.56
790.82	24284.81
791.00	24444.56
791.18	23826.07
791.36	24043.15
791.55	24125.07
791.73	23975.57
791.91	23553.69
792.09	23758.49
792.27	23793.30
792.45	23778.97
792.63	23869.08
792.81	23738.01
793.00	23744.15
793.18	23533.21
793.36	23658.14
793.54	23449.24
793.72	23357.08
793.90	23211.68
794.08	23080.61
794.26	23522.97
794.44	22748.84
794.62	22935.20
794.81	23060.13
794.99	23287.45
795.17	22920.87
795.35	23015.07
795.53	22869.67
795.71	22892.19
795.89	22728.36
796.07	22845.09
796.25	22990.50
796.43	22714.02
796.61	22441.64
796.80	22804.13
796.98	22675.11
797.16	22806.18
797.34	22455.98
797.52	22390.44
797.70	22345.39
797.88	22683.30
798.06	22195.89
798.24	22455.98
798.42	22238.89
798.60	22556.33
798.78	22046.38
798.96	22013.62
799.14	22163.12
799.32	21823.16
799.51	21802.68
799.69	21853.87
799.87	21831.35
800.05	21712.56
800.23	21761.72
800.41	21546.68
800.59	21763.76
800.77	21483.19
800.95	21401.27
801.13	21364.41
801.31	21087.93
801.49	21395.13
801.67	21022.40
801.85	21296.83
802.03	21094.08
802.21	20745.92
802.39	20917.95
802.57	20752.07
802.75	21149.37
802.93	20930.24
803.11	20764.36
803.29	20833.99
803.47	20612.81
803.65	20790.98
803.83	20541.13
804.01	20786.88
804.19	20713.16
804.37	20305.61
804.55	20395.72
804.73	20604.61
804.91	20545.22
805.09	20616.90
805.27	20510.41
805.45	20637.38
805.63	20545.22
805.81	20123.34
805.99	20121.29
806.17	20309.71
806.35	19951.31
806.53	20229.84
806.71	20223.69
806.89	19820.24
807.07	19973.84
807.25	19959.50
807.43	19822.29
807.61	19975.89
807.79	19867.34
807.97	19500.76
808.15	19377.88
808.33	19646.16
808.51	19807.95
808.69	19588.82
808.87	19484.37
809.05	19470.04
809.23	19445.46
809.41	19267.29
809.59	19234.52
809.77	19365.59
809.95	19109.60
810.13	19273.43
810.31	19111.64
810.49	19326.68
810.67	18982.62
810.84	19312.35
811.02	19164.89
811.20	18743.01
811.38	19115.74
811.56	18982.62
811.74	18912.99
811.92	18724.58
812.10	18697.95
812.28	18999.01
812.46	18775.78
812.64	18898.66
812.82	18714.34
813.00	18743.01
813.18	18736.87
813.36	18630.37
813.53	18568.93
813.71	18597.60
813.89	18093.80
814.07	18597.60
814.25	18446.05
814.43	18233.07
814.61	18321.13
814.79	18083.56
814.97	18214.63
815.15	18126.57
815.33	18026.22
815.50	18108.14
815.68	18132.72
815.86	18292.46
816.04	18122.48
816.22	17999.60
816.40	17960.69
816.58	17968.88
816.76	17839.86
816.94	17673.97
817.11	17880.82
817.29	17866.48
817.47	17553.14
817.65	17487.61
817.83	17772.27
818.01	17422.07
818.19	17444.60
818.37	17229.56
818.54	17555.19
818.72	17467.13
818.90	17506.04
819.08	17399.54
819.26	17383.16
819.44	17450.74
819.62	17266.42
819.80	17268.47
819.97	17374.97
820.15	17178.36
820.33	17188.60
820.51	17123.07
820.69	17061.63
820.87	16985.85
821.05	17198.84
821.22	16844.54
821.40	17096.44
821.58	16967.42
821.76	16805.63
821.94	16901.89
822.12	16928.51
822.29	17026.81
822.47	16699.14
822.65	16842.50
822.83	16652.03
823.01	16789.25
823.19	16744.19
823.36	16885.50
823.54	16688.90
823.72	16744.19
823.90	16824.06
824.08	16414.47
824.25	16455.43
824.43	16303.88
824.61	16602.88
824.79	16578.31
824.97	16326.41
825.15	16328.45
825.32	16408.33
825.50	16480.00
825.68	16264.97
825.86	16602.88
826.04	16379.65
826.21	16267.02
826.39	16062.22
826.57	16070.41
826.75	16209.67
826.93	16064.27
827.10	15957.77
827.28	16205.58
827.46	16062.22
827.64	16221.96
827.81	15955.72
827.99	16021.26
828.17	15972.11
828.35	15943.44
828.53	15968.01
828.70	15845.13
828.88	15861.52
829.06	15683.34
829.24	15744.78
829.41	15560.47
829.59	15925.00
829.77	15752.98
829.95	15687.44
830.12	15585.04
830.30	15910.67
830.48	15965.96
830.66	15601.43
830.84	15451.92
831.01	15496.98
831.19	15679.25
831.37	15144.73
831.55	15664.91
831.72	15484.69
831.90	15202.07
832.08	15374.10
832.25	15474.45
832.43	15376.15
832.61	15197.98
832.79	15341.33
832.96	15130.39
833.14	15177.50
833.32	15187.74
833.50	15228.70
833.67	15132.44
833.85	15212.31
834.03	14847.77
834.20	15142.68
834.38	14956.32
834.56	15099.67
834.74	14823.20
834.91	14919.45
835.09	14702.37
835.27	14860.06
835.44	14757.66
835.62	14941.98
835.80	14974.75
835.98	14817.05
836.15	14743.33
836.33	14751.52
836.51	14829.34
836.68	14894.88
836.86	14860.06
837.04	14632.74
837.21	14843.68
837.39	14894.88
837.57	14702.37
837.75	14751.52
837.92	14487.33
838.10	14495.52
838.28	14421.80
838.45	14753.57
838.63	14266.15
838.81	14485.28
838.98	14573.35
839.16	14518.05
839.34	14372.64
839.51	14180.14
839.69	14362.40
839.87	14200.62
840.04	14202.66
840.22	14432.04
840.40	14303.01
840.57	14077.74
840.75	14276.39
840.93	13838.12
841.10	14169.90
841.28	14436.13
841.46	14157.61
841.63	14137.13
841.81	13930.28
841.98	14067.50
842.16	13948.72
842.34	14079.79
842.51	13877.04
842.69	13918.00
842.87	14079.79
843.04	13979.43
843.22	13973.29
843.40	13954.86
843.57	13948.72
843.75	13942.57
843.92	13922.09
844.10	14008.11
844.28	13729.58
844.45	13926.19
844.63	13836.08
844.81	13639.47
844.98	13969.19
845.16	13662.00
845.33	13672.24
845.51	13623.09
845.69	13535.03
845.86	13428.53
846.04	13293.37
846.21	13309.75
846.39	13317.94
846.57	13520.69
846.74	13690.67
846.92	13410.10
847.09	13535.03
847.27	13252.41
847.45	13369.14
847.62	13621.04
847.80	13227.83
847.97	13289.27
848.15	13399.86
848.32	13213.49
848.50	13231.93
848.68	13195.06
848.85	13307.70
849.03	13121.34
849.20	13342.52
849.38	13209.40
849.56	13193.01
849.73	13201.21
849.91	13037.37
850.08	13131.58
850.26	12943.16
850.43	12992.31
850.61	13215.54
850.78	12973.88
850.96	13018.94
851.14	12873.53
851.31	13082.42
851.49	12857.15
851.66	12818.24
851.84	12926.78
852.01	12898.11
852.19	13014.84
852.36	13068.09
852.54	12760.89
852.71	12975.93
852.89	12910.40
853.07	12613.44
853.24	12748.61
853.42	12752.70
853.59	12707.65
853.77	12760.89
853.94	12703.55
854.12	12746.56
854.29	12756.80
854.47	12584.77
854.64	12738.37
854.82	12574.53
854.99	12826.43
855.17	12693.31
855.34	12668.73
855.52	12384.07
855.69	12670.78
855.87	12537.66
856.04	12492.61
856.22	12441.41
856.39	12418.88
856.57	12498.75
856.74	12558.14
856.92	12457.79
857.09	12343.11
857.27	12341.06
857.44	12443.46
857.62	12330.82
857.79	12394.31
857.97	12078.92
858.14	12357.44
858.32	12304.20
858.49	12277.57
858.67	12312.39
858.84	12253.00
859.02	12205.89
859.19	12308.29
859.37	12156.74
859.54	11994.95
859.72	12144.45
859.89	12103.50
860.06	12097.35
860.24	12064.58
860.41	12035.91
860.59	11894.60
860.76	11964.23
860.94	11837.26
861.11	11937.61
861.29	11970.38
861.46	11872.07
861.64	11759.44
861.81	11759.44
861.98	11870.03
862.16	11702.09
862.33	11820.88
862.51	11667.28
862.68	11890.51
862.86	11853.64
863.03	11726.67
863.21	11741.00
863.38	11896.65
863.55	11657.04
863.73	11652.94
863.90	11597.65
864.08	11620.17
864.25	11708.24
864.43	11714.38
864.60	11376.47
864.77	11491.15
864.95	11337.56
865.12	11263.83
865.30	11706.19
865.47	11499.34
865.64	11503.44
865.82	11548.50
865.99	11482.96
866.17	11388.75
866.34	11353.94
866.51	11175.77
866.69	11466.58
866.86	11157.33
867.04	11286.36
867.21	11341.65
867.38	11136.85
867.56	11280.21
867.73	11198.29
867.91	11196.25
868.08	11114.33
868.25	11188.05
868.43	11147.09
868.60	10975.06
868.78	11077.46
868.95	11149.14
869.12	11153.24
869.30	11136.85
869.47	11106.13
869.64	10968.92
869.82	10850.14
869.99	11085.65
870.16	10999.64
870.34	10829.66
870.51	10930.01
870.69	10727.26
870.86	10891.10
871.03	10917.72
871.21	10616.67
871.38	10948.44
871.55	10674.01
871.73	10528.61
871.90	10665.82
872.07	10575.71
872.25	10651.49
872.42	10854.23
872.59	10542.94
872.77	10596.19
872.94	10565.47
873.11	10579.81
873.29	10528.61
873.46	10626.91
873.63	10614.62
873.81	10368.87
873.98	10592.09
874.15	10551.14
874.33	10354.53
874.50	10202.98
874.67	10430.30
874.85	10309.47
875.02	10442.59
875.19	10162.02
875.37	10194.79
875.54	10143.59
875.71	10186.60
875.88	10024.81
876.06	10069.86
876.23	9998.18
876.40	10112.87
876.58	10200.93
876.75	10084.20
876.92	9889.64
877.10	9940.84
877.27	9924.46
877.44	9918.31
877.61	9871.21
877.79	9938.79
877.96	9797.48
878.13	9973.61
878.31	9877.35
878.48	9893.74
878.65	9801.58
878.82	9750.38
879.00	9701.23
879.17	9989.99
879.34	9846.63
879.51	9715.56
879.69	9566.06
879.86	9820.01
880.03	9719.66
880.21	9457.52
880.38	9668.46
880.55	9684.84
880.72	9447.28
880.90	9654.12
881.07	9836.39
881.24	9621.36
881.41	9664.36
881.59	9551.73
881.76	9342.83
881.93	9299.83
882.10	9428.85
882.28	9484.14
882.45	9496.43
882.62	9277.30
882.79	9408.37
882.96	9203.57
883.14	9353.07
883.31	9602.93
883.48	9348.98
883.65	9301.87
883.83	9422.70
884.00	9453.42
884.17	9234.29
884.34	9342.83
884.51	9248.63
884.69	9215.86
884.86	9219.96
885.03	9361.27
885.20	9256.82
885.38	9219.96
885.55	9289.59
885.72	9420.66
885.89	9213.81
886.06	9224.05
886.24	9191.28
886.41	8966.01
886.58	9189.24
886.75	9283.44
886.92	8980.34
887.10	9248.63
887.27	9144.18
887.44	9207.67
887.61	9226.10
887.78	9119.60
887.95	9052.02
888.13	9138.04
888.30	9045.88
888.47	8910.71
888.64	8882.04
888.81	8990.58
888.99	8929.14
889.16	8986.49
889.33	8865.66
889.50	8996.73
889.67	8796.03
889.84	8763.26
890.01	8867.70
890.19	8898.42
890.36	8789.88
890.53	8935.29
890.70	8757.11
890.87	8724.35
891.04	8773.50
891.22	8793.98
891.39	8734.59
891.56	8695.68
891.73	8642.43
891.90	8540.03
892.07	8773.50
892.24	8769.40
892.42	8697.72
892.59	8562.56
892.76	8626.04
892.93	8480.64
893.10	8578.94
893.27	8671.10
893.44	8525.69
893.61	8552.32
893.79	8648.57
893.96	8474.49
894.13	8533.89
894.30	8490.88
894.47	8484.73
894.64	8578.94
894.81	8638.33
894.98	8765.31
895.15	8611.71
895.33	8535.93
895.50	8421.25
895.67	8664.96
895.84	8431.49
896.01	8347.52
896.18	8570.75
896.35	8517.50
896.52	8478.59
896.69	8425.34
896.86	8363.90
897.04	8626.04
897.21	8386.43
897.38	8517.50
897.55	8429.44
897.72	8419.20
897.89	8507.26
898.06	8454.02
898.23	8304.51
898.40	8431.49
898.57	8396.67
898.74	8392.58
898.91	8265.60
899.08	8314.75
899.26	8181.64
899.43	8423.30
899.60	8361.86
899.77	8464.25
899.94	8212.35
900.11	8275.84
900.28	8247.17
900.45	8351.62
900.62	8322.94
900.79	8171.40
900.96	8314.75
901.13	8341.38
901.30	8187.78
901.47	8327.04
901.64	8165.25
901.81	8175.49
901.98	8247.17
902.15	8370.05
902.32	8267.65
902.49	8081.28
902.66	8312.71
902.83	8243.07
903.01	8245.12
903.18	8351.62
903.35	8202.11
903.52	8116.10
903.69	8099.72
903.86	8234.88
904.03	8069.00
904.20	8257.41
904.37	8259.46
904.54	8081.28
904.71	8126.34
904.88	8380.29
905.05	8122.24
905.22	8122.24
905.39	8155.01
905.56	8058.76
905.73	7970.69
905.90	8114.05
906.07	8202.11
906.24	8126.34
906.41	8152.96
906.58	8103.81
906.75	8040.33
906.92	8095.62
907.09	7999.37
907.26	8109.96
907.43	7966.60
907.60	8187.78
907.77	8298.37
907.93	8005.51
908.10	8146.82
908.27	7993.22
908.44	8075.14
908.61	7901.06
908.78	7888.78
908.95	8052.61
909.12	8032.13
909.29	8032.13
909.46	8089.48
909.63	7980.93
909.80	7937.93
909.97	8103.81
910.14	8132.48
910.31	7972.74
910.48	8011.65
910.65	8220.55
910.82	7923.59
910.99	7825.29
911.16	7792.52
911.33	7888.78
911.50	7894.92
911.66	7829.38
911.83	7950.21
912.00	7806.86
912.17	7716.75
912.34	7690.12
912.51	7989.13
912.68	7720.84
912.85	7813.00
913.02	7806.86
913.19	7557.00
913.36	7683.98
913.53	7630.73
913.70	7673.74
913.86	7800.71
914.03	7489.42
914.20	7581.58
914.37	7632.78
914.54	7587.72
914.71	7813.00
914.88	7571.34
915.05	7454.61
915.22	7466.89
915.39	7579.53
915.55	7454.61
915.72	7493.52
915.89	7542.67
916.06	7358.35
916.23	7475.09
916.40	7436.17
916.57	7423.89
916.74	7251.86
916.91	7407.50
917.07	7284.62
917.24	7483.28
917.41	7151.51
917.58	7481.23
917.75	7227.28
917.92	7157.65
918.09	7196.56
918.26	7243.67
918.42	7100.31
918.59	7221.14
918.76	7104.40
918.93	7102.36
919.10	6981.53
919.27	7079.83
919.44	7255.95
919.60	7047.06
919.77	7092.12
919.94	7053.20
920.11	6999.96
920.28	7034.77
920.45	6981.53
920.61	6799.26
920.78	6905.75
920.95	6764.44
921.12	6858.65
921.29	6795.16
921.46	6842.26
921.62	6733.72
921.79	6776.73
921.96	6729.63
922.13	6727.58
922.30	6649.75
922.47	6754.20
922.63	6657.95
922.80	6709.15
922.97	6623.13
923.14	6508.44
923.31	6619.04
923.47	6408.09
923.64	6639.51
923.81	6549.40
923.98	6385.57
924.15	6395.81
924.32	6485.92
924.48	6492.06
924.65	6412.19
924.82	6336.42
924.99	6348.70
925.15	6193.06
925.32	6338.46
925.49	6356.90
925.66	6375.33
925.83	6248.35
925.99	6277.02
926.16	6303.65
926.33	6172.58
926.50	6068.13
926.67	6055.84
926.83	6078.37
927.00	6084.52
927.17	6104.99
927.34	5947.30
927.50	6000.55
927.67	6021.03
927.84	5941.16
928.01	5945.25
928.17	5812.14
928.34	5906.34
928.51	5863.33
928.68	5836.71
928.84	5910.44
929.01	5736.36
929.18	5623.72
929.35	5832.62
929.51	5838.76
929.68	5601.19
929.85	5588.91
930.02	5742.50
930.18	5851.05
930.35	5613.48
930.52	5506.99
930.69	5427.12
930.85	5586.86
931.02	5492.65
931.19	5459.88
931.36	5396.40
931.52	5339.05
931.69	5402.54
931.86	5244.85
932.02	5394.35
932.19	5416.88
932.36	5380.01
932.53	5287.86
932.69	5181.36
932.86	5322.67
933.03	5257.14
933.19	4915.12
933.36	5128.11
933.53	5113.78
933.70	5162.93
933.86	5052.34
934.03	5087.15
934.20	4933.56
934.36	4865.97
934.53	4865.97
934.70	4732.86
934.86	5040.05
935.03	4698.04
935.20	4845.49
935.36	4915.12
935.53	4827.06
935.70	4798.39
935.86	4851.64
936.03	4763.58
936.20	4593.59
936.36	4609.98
936.53	4411.32
936.70	4501.44
936.86	4577.21
937.03	4595.64
937.20	4446.14
937.36	4478.91
937.53	4353.98
937.70	4413.37
937.86	4280.25
938.03	4272.06
938.20	4259.78
938.36	4267.97
938.53	4175.81
938.70	4159.42
938.86	4110.27
939.03	4054.98
939.20	4126.66
939.36	3971.01
939.53	3950.53
939.70	4089.79
939.86	3813.32
940.03	3874.76
940.19	3616.71
940.36	3878.85
940.53	3850.18
940.69	3686.34
940.86	3647.43
941.03	3606.47
941.19	3514.31
941.36	3493.83
941.52	3575.75
941.69	3555.27
941.86	3434.44
942.02	3489.74
942.19	3485.64
942.35	3477.45
942.52	3348.43
942.69	3385.29
942.85	3368.91
943.02	3352.52
943.18	3348.43
943.35	3278.80
943.52	3203.02
943.68	3260.37
943.85	3137.49
944.01	3227.60
944.18	3147.73
944.35	3180.50
944.51	3131.34
944.68	3196.88
944.84	3133.39
945.01	3147.73
945.17	3119.06
945.34	3141.58
945.51	3112.91
945.67	3067.86
945.84	2992.08
946.00	3037.14
946.17	3006.42
946.33	2987.99
946.50	3110.86
946.67	3035.09
946.83	2977.75
947.00	3014.61
947.16	2928.60
947.33	2877.40
947.49	3012.56
947.66	2998.23
947.82	2963.41
947.99	3043.28
948.16	2955.22
948.32	2971.60
948.49	3045.33
948.65	2973.65
948.82	2963.41
948.98	2985.94
949.15	2879.44
949.31	2869.20
949.48	2932.69
949.64	2904.02
949.81	2914.26
949.97	2959.31
950.14	3004.37
950.30	2901.97
950.47	3000.27
950.63	2977.75
950.80	2856.92
950.96	2932.69
951.13	2891.73
951.30	2926.55
951.46	2877.40
951.63	2893.78
951.79	2867.16
951.96	2858.96
952.12	2947.03
952.29	2873.30
952.45	2881.49
952.62	2871.25
952.78	2977.75
952.94	2863.06
953.11	2869.20
953.27	2912.21
953.44	2938.84
953.60	2912.21
953.77	2877.40
953.93	2877.40
954.10	2811.86
954.26	2838.48
954.43	2803.67
954.59	2873.30
954.76	2955.22
954.92	2807.77
955.09	2824.15
955.25	2893.78
955.42	2854.87
955.58	2897.88
955.75	2887.64
955.91	2787.29
956.07	2906.07
956.24	2797.53
956.40	2865.11
956.57	2787.29
956.73	2846.68
956.90	2840.53
957.06	2770.90
957.23	2734.04
957.39	2820.05
957.56	2750.42
957.72	2721.75
957.88	2707.41
958.05	2854.87
958.21	2846.68
958.38	2809.81
958.54	2754.52
958.71	2828.24
958.87	2828.24
959.03	2818.00
959.20	2893.78
959.36	2777.05
959.53	2803.67
959.69	2758.61
959.85	2777.05
960.02	2744.28
960.18	2844.63
960.35	2758.61
960.51	2832.34
960.68	2762.71
960.84	2791.38
961.00	2762.71
961.17	2680.79
961.33	2760.66
961.50	2779.09
961.66	2805.72
961.82	2633.69
961.99	2680.79
962.15	2836.44
962.31	2707.41
962.48	2717.65
962.64	2750.42
962.81	2613.21
962.97	2670.55
963.13	2670.55
963.30	2719.70
963.46	2682.84
963.62	2699.22
963.79	2729.94
963.95	2691.03
964.12	2648.02
964.28	2779.09
964.44	2602.97
964.61	2656.22
964.77	2734.04
964.93	2703.32
965.10	2752.47
965.26	2637.78
965.42	2713.56
965.59	2678.74
965.75	2609.11
965.92	2625.50
966.08	2656.22
966.24	2691.03
966.41	2611.16
966.57	2775.00
966.73	2664.41
966.90	2605.02
967.06	2678.74
967.22	2711.51
967.39	2611.16
967.55	2666.46
967.71	2721.75
967.88	2629.59
968.04	2594.78
968.20	2641.88
968.37	2623.45
968.53	2637.78
968.69	2691.03
968.85	2576.34
969.02	2568.15
969.18	2652.12
969.34	2490.33
969.51	2609.11
969.67	2521.05
969.83	2605.02
970.00	2627.54
970.16	2504.67
970.32	2641.88
970.48	2713.56
970.65	2613.21
970.81	2516.95
970.97	2562.01
971.14	2486.23
971.30	2605.02
971.46	2559.96
971.63	2598.87
971.79	2611.16
971.95	2592.73
972.11	2543.58
972.28	2555.86
972.44	2523.10
972.60	2459.61
972.76	2609.11
972.93	2582.49
973.09	2525.15
973.25	2523.10
973.42	2531.29
973.58	2502.62
973.74	2506.71
973.90	2496.47
974.07	2508.76
974.23	2500.57
974.39	2463.71
974.55	2519.00
974.72	2545.63
974.88	2488.28
975.04	2533.34
975.20	2516.95
975.37	2508.76
975.53	2463.71
975.69	2506.71
975.85	2527.19
976.01	2445.27
976.18	2537.43
976.34	2480.09
976.50	2490.33
976.66	2492.38
976.83	2392.03
976.99	2363.36
977.15	2459.61
977.31	2322.40
977.47	2473.95
977.64	2486.23
977.80	2482.14
977.96	2437.08
978.12	2404.32
978.29	2373.60
978.45	2392.03
978.61	2398.17
978.77	2455.51
978.93	2465.75
979.10	2400.22
979.26	2324.44
979.42	2357.21
979.58	2381.79
979.74	2367.45
979.91	2389.98
980.07	2396.12
980.23	2318.30
980.39	2422.75
980.55	2363.36
980.71	2293.72
980.88	2371.55
981.04	2424.80
981.20	2314.20
981.36	2332.64
981.52	2396.12
981.68	2371.55
981.85	2318.30
982.01	2306.01
982.17	2422.75
982.33	2389.98
982.49	2320.35
982.65	2289.63
982.82	2379.74
982.98	2396.12
983.14	2269.15
983.30	2267.10
983.46	2351.07
983.62	2340.83
983.79	2271.20
983.95	2285.53
984.11	2263.01
984.27	2340.83
984.43	2295.77
984.59	2240.48
984.75	2344.92
984.91	2293.72
985.08	2260.96
985.24	2254.81
985.40	2242.53
985.56	2306.01
985.72	2285.53
985.88	2285.53
986.04	2217.95
986.20	2224.09
986.37	2236.38
986.53	2256.86
986.69	2215.90
986.85	2189.28
987.01	2236.38
987.17	2287.58
987.33	2281.44
987.49	2236.38
987.65	2269.15
987.82	2271.20
987.98	2181.09
988.14	2246.62
988.30	2277.34
988.46	2183.13
988.62	2226.14
988.78	2303.96
988.94	2238.43
989.10	2125.79
989.26	2119.65
989.42	2185.18
989.59	2117.60
989.75	2138.08
989.91	2287.58
990.07	2154.46
990.23	2119.65
990.39	2164.70
990.55	2207.71
990.71	2156.51
990.87	2209.76
991.03	2154.46
991.19	2158.56
991.35	2217.95
991.51	2162.66
991.67	2213.85
991.83	2191.33
992.00	2138.08
992.16	2174.94
992.32	2232.29
992.48	2144.22
992.64	2136.03
992.80	2260.96
992.96	2142.18
993.12	2238.43
993.28	2146.27
993.44	2179.04
993.60	2172.89
993.76	2076.64
993.92	2164.70
994.08	2082.78
994.24	2086.88
994.40	2103.26
994.56	2115.55
994.72	2045.92
994.88	2097.12
995.04	2127.84
995.20	2125.79
995.36	2129.89
995.52	2054.11
995.68	2105.31
995.84	2107.36
996.00	2142.18
996.16	2056.16
996.32	2107.36
996.48	2131.94
996.64	2043.87
996.80	2050.02
996.96	2070.50
997.12	2090.98
997.28	2041.82
997.44	2062.30
997.60	2090.98
997.76	2099.17
997.92	2035.68
998.08	2078.69
998.24	1998.82
998.40	1996.77
998.56	2072.54
998.72	2015.20
998.88	2039.78
999.04	2043.87
999.20	2127.84
999.36	2058.21
999.52	2109.41
999.68	2072.54
999.84	2027.49
1000.00	2101.22
1000.16	2101.22
1000.32	2039.78
1000.48	2088.93
1000.64	1986.53
1000.80	2050.02
1000.95	1933.28
1001.11	2058.21
1001.27	1978.34
1001.43	2068.45
1001.59	1972.19
1001.75	1947.62
1001.91	2105.31
1002.07	2043.87
1002.23	1925.09
1002.39	2033.63
1002.55	1992.67
1002.71	1939.43
1002.87	1998.82
1003.03	2002.91
1003.19	2066.40
1003.34	2015.20
1003.50	1964.00
1003.66	2043.87
1003.82	1986.53
1003.98	1968.10
1004.14	1953.76
1004.30	1939.43
1004.46	1884.13
1004.62	1978.34
1004.78	1882.08
1004.94	1964.00
1005.09	1943.52
1005.25	1996.77
1005.41	1923.04
1005.57	1939.43
1005.73	1902.56
1005.89	1914.85
1006.05	2017.25
1006.21	1961.95
1006.37	1933.28
1006.52	1918.95
1006.68	1945.57
1006.84	1968.10
1007.00	1955.81
1007.16	2019.30
1007.32	1951.71
1007.48	2015.20
1007.64	1988.58
1007.79	1923.04
1007.95	1951.71
1008.11	1945.57
1008.27	1957.86
1008.43	1945.57
1008.59	1916.90
1008.75	1968.10
1008.91	1916.90
1009.06	1826.79
1009.22	1972.19
1009.38	1906.66
1009.54	1980.39
1009.70	1925.09
1009.86	1959.91
1010.01	1951.71
1010.17	1882.08
1010.33	1949.67
1010.49	1914.85
1010.65	1953.76
1010.81	1896.42
1010.96	1951.71
1011.12	1855.46
1011.28	1841.12
1011.44	1929.19
1011.60	1894.37
1011.76	1841.12
1011.91	1937.38
1012.07	1931.23
1012.23	1877.99
1012.39	1931.23
1012.55	1947.62
1012.71	1818.60
1012.86	1923.04
1013.02	1843.17
1013.18	1916.90
1013.34	1861.60
1013.50	1882.08
1013.65	1920.99
1013.81	1777.64
1013.97	1859.56
1014.13	1914.85
1014.29	1892.32
1014.44	1894.37
1014.60	1832.93
1014.76	1814.50
1014.92	1900.52
1015.07	1845.22
1015.23	1841.12
1015.39	1830.88
1015.55	1847.27
1015.71	1847.27
1015.86	1877.99
1016.02	1748.97
1016.18	1828.84
1016.34	1841.12
1016.49	1808.36
1016.65	1802.21
1016.81	1849.32
1016.97	1777.64
1017.12	1791.97
1017.28	1814.50
1017.44	1726.44
1017.60	1822.69
1017.75	1824.74
1017.91	1800.16
1018.07	1861.60
1018.23	1841.12
1018.38	1791.97
1018.54	1748.97
1018.70	1865.70
1018.86	1796.07
1019.01	1740.77
1019.17	1736.68
1019.33	1834.98
1019.49	1789.92
1019.64	1765.35
1019.80	1796.07
1019.96	1873.89
1020.12	1851.36
1020.27	1828.84
1020.43	1781.73
1020.59	1806.31
1020.74	1789.92
1020.90	1804.26
1021.06	1742.82
1021.22	1777.64
1021.37	1718.25
1021.53	1730.53
1021.69	1804.26
1021.84	1751.01
1022.00	1710.05
1022.16	1765.35
1022.31	1771.49
1022.47	1796.07
1022.63	1767.40
1022.79	1767.40
1022.94	1705.96
1023.10	1777.64
1023.26	1728.49
1023.41	1728.49
1023.57	1746.92
1023.73	1828.84
1023.88	1775.59
1024.04	1791.97
1024.20	1724.39
1024.35	1794.02
1024.51	1720.29
1024.67	1769.44
1024.82	1789.92
1024.98	1699.81
1025.14	1761.25
1025.29	1767.40
1025.45	1732.58
1025.61	1679.33
1025.76	1798.12
1025.92	1720.29
1026.08	1755.11
1026.23	1804.26
1026.39	1822.69
1026.55	1646.57
1026.70	1763.30
1026.86	1744.87
1027.02	1738.73
1027.17	1687.53
1027.33	1726.44
1027.48	1777.64
1027.64	1697.77
1027.80	1697.77
1027.95	1730.53
1028.11	1681.38
1028.27	1675.24
1028.42	1673.19
1028.58	1681.38
1028.73	1708.01
1028.89	1687.53
1029.05	1824.74
1029.20	1777.64
>>>>>End Processed Spectral Data<<<<<
