SpectraSuite Data File
++++++++++++++++++++++++++++++++++++
Date: Tue Jun 13 11:50:59 CEST 2017
User: INFO_000
Dark Spectrum Present: No
Reference Spectrum Present: No
Number of Sampled Component Spectra: 1
Spectrometers: USB4H00879
Integration Time (usec): 30000 (USB4H00879)
Spectra Averaged: 1 (USB4H00879)
Boxcar Smoothing: 0 (USB4H00879)
Correct for Electrical Dark: No (USB4H00879)
Strobe/Lamp Enabled: No (USB4H00879)
Correct for Detector Non-linearity: No (USB4H00879)
Correct for Stray Light: No (USB4H00879)
Number of Pixels in Processed Spectrum: 3648
>>>>>Begin Processed Spectral Data<<<<<
345.13	1368.04
345.34	1368.04
345.56	1368.04
345.78	1288.17
345.99	1345.52
346.21	1476.59
346.42	1476.59
346.64	1445.87
346.86	1578.98
347.07	1515.50
347.29	1525.74
347.50	1429.48
347.72	1513.45
347.94	1548.26
348.15	1454.06
348.37	1460.20
348.59	1554.41
348.80	1515.50
349.02	1593.32
349.23	1646.57
349.45	1621.99
349.67	1595.37
349.88	1673.19
350.10	1693.67
350.31	1621.99
350.53	1599.46
350.75	1677.29
350.96	1617.90
351.18	1665.00
351.39	1669.09
351.61	1669.09
351.82	1619.94
352.04	1648.61
352.26	1595.37
352.47	1662.95
352.69	1695.72
352.90	1638.38
353.12	1644.52
353.34	1689.57
353.55	1683.43
353.77	1761.25
353.98	1654.76
354.20	1593.32
354.41	1722.34
354.63	1751.01
354.85	1712.10
355.06	1615.85
355.28	1628.14
355.49	1646.57
355.71	1689.57
355.92	1636.33
356.14	1708.01
356.35	1658.85
356.57	1564.65
356.79	1656.81
357.00	1708.01
357.22	1669.09
357.43	1562.60
357.65	1714.15
357.86	1642.47
358.08	1701.86
358.29	1642.47
358.51	1759.21
358.72	1746.92
358.94	1730.53
359.16	1712.10
359.37	1724.39
359.59	1673.19
359.80	1689.57
360.02	1738.73
360.23	1712.10
360.45	1796.07
360.66	1744.87
360.88	1699.81
361.09	1761.25
361.31	1777.64
361.52	1716.20
361.74	1828.84
361.95	1802.21
362.17	1705.96
362.38	1777.64
362.60	1732.58
362.81	1732.58
363.03	1662.95
363.24	1726.44
363.46	1773.54
363.67	1765.35
363.89	1798.12
364.10	1757.16
364.32	1773.54
364.53	1771.49
364.75	1734.63
364.96	1753.06
365.18	1783.78
365.39	1767.40
365.61	1769.44
365.82	1849.32
366.04	1861.60
366.25	1746.92
366.47	1824.74
366.68	1759.21
366.90	1804.26
367.11	1851.36
367.33	1873.89
367.54	1873.89
367.76	1824.74
367.97	1914.85
368.19	1828.84
368.40	1832.93
368.62	1794.02
368.83	1873.89
369.05	1828.84
369.26	1714.15
369.48	1810.40
369.69	1880.04
369.91	1894.37
370.12	1822.69
370.33	1873.89
370.55	1818.60
370.76	1818.60
370.98	1884.13
371.19	1787.88
371.41	1841.12
371.62	1843.17
371.84	1822.69
372.05	1925.09
372.27	1898.47
372.48	1882.08
372.69	1869.80
372.91	1900.52
373.12	1972.19
373.34	1869.80
373.55	1966.05
373.77	1966.05
373.98	2041.82
374.20	1949.67
374.41	2033.63
374.62	2023.39
374.84	1961.95
375.05	1937.38
375.27	1943.52
375.48	1918.95
375.70	1982.43
375.91	2015.20
376.12	2027.49
376.34	1918.95
376.55	1980.39
376.77	2031.58
376.98	2050.02
377.19	1959.91
377.41	1964.00
377.62	2029.54
377.84	2062.30
378.05	2054.11
378.27	2025.44
378.48	2211.81
378.69	2093.02
378.91	2105.31
379.12	2086.88
379.34	2050.02
379.55	2150.37
379.76	2101.22
379.98	2041.82
380.19	2111.46
380.41	2131.94
380.62	2115.55
380.83	2072.54
381.05	2076.64
381.26	2168.80
381.47	2103.26
381.69	2140.13
381.90	2174.94
382.12	2215.90
382.33	2047.97
382.54	2150.37
382.76	2230.24
382.97	2205.66
383.19	2131.94
383.40	2222.05
383.61	2199.52
383.83	2213.85
384.04	2242.53
384.25	2185.18
384.47	2209.76
384.68	2230.24
384.89	2205.66
385.11	2125.79
385.32	2293.72
385.54	2222.05
385.75	2201.57
385.96	2291.68
386.18	2293.72
386.39	2383.84
386.60	2297.82
386.82	2256.86
387.03	2285.53
387.24	2426.84
387.46	2314.20
387.67	2361.31
387.88	2389.98
388.10	2369.50
388.31	2324.44
388.52	2473.95
388.74	2389.98
388.95	2398.17
389.16	2396.12
389.38	2457.56
389.59	2486.23
389.80	2449.37
390.02	2418.65
390.23	2441.18
390.44	2430.94
390.66	2500.57
390.87	2383.84
391.08	2549.72
391.30	2525.15
391.51	2435.03
391.72	2574.30
391.94	2521.05
392.15	2543.58
392.36	2473.95
392.58	2596.82
392.79	2590.68
393.00	2578.39
393.22	2580.44
393.43	2611.16
393.64	2613.21
393.85	2713.56
394.07	2676.70
394.28	2734.04
394.49	2623.45
394.71	2660.31
394.92	2770.90
395.13	2742.23
395.35	2621.40
395.56	2699.22
395.77	2715.61
395.98	2783.19
396.20	2715.61
396.41	2725.85
396.62	2881.49
396.84	2772.95
397.05	2754.52
397.26	2924.50
397.47	2897.88
397.69	2754.52
397.90	2885.59
398.11	2885.59
398.32	2889.68
398.54	2815.96
398.75	2889.68
398.96	2967.51
399.18	2949.08
399.39	2908.12
399.60	3006.42
399.81	3012.56
400.03	2942.93
400.24	3051.47
400.45	2875.35
400.66	3006.42
400.88	3106.77
401.09	3223.50
401.30	3076.05
401.51	3094.48
401.73	3014.61
401.94	3106.77
402.15	3057.62
402.36	3096.53
402.58	3071.95
402.79	3198.93
403.00	3125.20
403.21	3190.74
403.43	3180.50
403.64	3262.41
403.85	3166.16
404.06	3227.60
404.27	3178.45
404.49	3200.98
404.70	3194.83
404.91	3248.08
405.12	3157.97
405.34	3276.75
405.55	3342.28
405.76	3309.52
405.97	3252.17
406.19	3383.24
406.40	3309.52
406.61	3350.48
406.82	3397.58
407.03	3401.68
407.25	3413.96
407.46	3389.39
407.67	3403.72
407.88	3356.62
408.09	3465.16
408.31	3442.64
408.52	3477.45
408.73	3452.88
408.94	3284.94
409.15	3459.02
409.37	3409.87
409.58	3737.54
409.79	3588.04
410.00	3493.83
410.21	3504.07
410.43	3608.52
410.64	3481.55
410.85	3602.38
411.06	3690.44
411.27	3684.30
411.48	3717.06
411.70	3657.67
411.91	3766.21
412.12	3663.82
412.33	3604.42
412.54	3751.88
412.76	3880.90
412.97	3788.74
413.18	3600.33
413.39	3733.45
413.60	3706.82
413.81	3776.45
414.03	3721.16
414.24	3805.13
414.45	3827.65
414.66	3862.47
414.87	3919.81
415.08	3850.18
415.30	3897.28
415.51	3841.99
415.72	3944.39
415.93	3925.96
416.14	3968.96
416.35	3921.86
416.56	3966.92
416.78	3844.04
416.99	4081.60
417.20	3825.61
417.41	4095.94
417.62	4009.92
417.83	4108.23
418.04	4032.45
418.26	4054.98
418.47	4130.75
418.68	4214.72
418.89	3995.59
419.10	4202.43
419.31	4331.45
419.52	4300.73
419.73	4261.82
419.95	4339.65
420.16	4216.77
420.37	4315.07
420.58	4239.30
420.79	4241.34
421.00	4446.14
421.21	4480.96
421.42	4421.56
421.63	4409.28
421.85	4392.89
422.06	4556.73
422.27	4458.43
422.48	4356.03
422.69	4462.52
422.90	4644.79
423.11	4560.83
423.32	4544.44
423.53	4622.27
423.75	4691.90
423.96	4796.34
424.17	4620.22
424.38	4747.19
424.59	4782.01
424.80	5001.14
425.01	4853.69
425.22	4732.86
425.43	4679.61
425.64	4949.94
425.85	5031.86
426.06	4837.30
426.28	4925.36
426.49	4984.76
426.70	4925.36
426.91	5023.67
427.12	5054.39
427.33	5152.69
427.54	5001.14
427.75	5128.11
427.96	5216.18
428.17	5158.83
428.38	5150.64
428.59	5349.29
428.80	5038.00
429.01	5369.77
429.23	5302.19
429.44	5517.23
429.65	5394.35
429.86	5443.50
430.07	5281.71
430.28	5337.01
430.49	5478.32
430.70	5550.00
430.91	5498.80
431.12	5441.45
431.33	5656.49
431.54	5566.38
431.75	5597.10
431.96	5656.49
432.17	5666.73
432.38	5656.49
432.59	5900.20
432.80	5703.59
433.01	5887.91
433.22	5797.80
433.43	5838.76
433.64	5785.51
433.85	5703.59
434.06	5902.25
434.27	5926.82
434.49	5978.02
434.70	6047.65
434.91	5975.97
435.12	6055.84
435.33	5900.20
435.54	6133.67
435.75	5978.02
435.96	6012.84
436.17	5892.01
436.38	6363.04
436.59	6320.03
436.80	6236.06
437.01	6322.08
437.22	6360.99
437.43	6244.26
437.64	6254.50
437.85	6221.73
438.06	6498.20
438.27	6440.86
438.48	6467.49
438.69	6571.93
438.90	6596.51
439.11	6420.38
439.32	6498.20
439.53	6496.16
439.74	6643.61
439.95	6514.59
440.16	6655.90
440.37	6659.99
440.57	6438.81
440.78	6565.79
440.99	6713.24
441.20	6668.19
441.41	6537.12
441.62	6793.11
441.83	6647.71
442.04	6893.46
442.25	6809.50
442.46	6995.86
442.67	7053.20
442.88	7501.71
443.09	6872.98
443.30	6852.50
443.51	7075.73
443.72	7079.83
443.93	6995.86
444.14	7155.60
444.35	6940.57
444.56	7227.28
444.77	7155.60
444.98	7161.75
445.19	7165.84
445.40	7448.46
445.61	7155.60
445.81	7458.70
446.02	7391.12
446.23	7122.84
446.44	7139.22
446.65	7376.78
446.86	7329.68
447.07	7374.74
447.28	7739.27
447.49	7540.62
447.70	7595.92
447.91	7464.85
448.12	7509.90
448.33	7655.31
448.54	7520.14
448.74	7694.22
448.95	7823.24
449.16	7581.58
449.37	7821.19
449.58	7692.17
449.79	8122.24
450.00	7690.12
450.21	7960.45
450.42	8232.83
450.63	8042.37
450.84	8161.16
451.05	7868.30
451.25	7964.55
451.46	7915.40
451.67	8015.75
451.88	8284.03
452.09	8413.06
452.30	8302.47
452.51	8216.45
452.72	8478.59
452.93	8441.73
453.13	8327.04
453.34	8279.94
453.55	8419.20
453.76	8451.97
453.97	8873.85
454.18	8521.60
454.39	8611.71
454.60	8777.59
454.81	8585.08
455.01	8796.03
455.22	8562.56
455.43	8750.97
455.64	8859.51
455.85	8955.77
456.06	9074.55
456.27	8963.96
456.48	8943.48
456.68	9140.08
456.89	9015.16
457.10	9381.74
457.31	9252.72
457.52	9090.93
457.73	9258.87
457.94	9707.37
458.14	9254.77
458.35	9609.07
458.56	9418.61
458.77	9383.79
458.98	9723.76
459.19	9572.21
459.39	9656.17
459.60	9766.76
459.81	9693.04
460.02	10010.47
460.23	9791.34
460.44	10221.41
460.65	10010.47
460.85	10014.57
461.06	10104.68
461.27	10045.29
461.48	10561.37
461.69	10561.37
461.89	10262.37
462.10	10473.31
462.31	10223.46
462.52	10452.83
462.73	10583.90
462.94	10723.16
463.14	10544.99
463.35	10581.85
463.56	11063.13
463.77	10907.48
463.98	10907.48
464.18	10977.11
464.39	10973.02
464.60	11355.99
464.81	11216.72
465.02	10970.97
465.23	11435.86
465.43	11306.84
465.64	11669.33
465.85	11593.55
466.06	11444.05
466.27	11870.03
466.47	11902.79
466.68	11564.88
466.89	11648.85
467.10	12025.67
467.30	11741.00
467.51	12148.55
467.72	12171.08
467.93	11921.23
468.14	12218.18
468.34	12222.28
468.55	12269.38
468.76	12465.99
468.97	12279.62
469.17	12500.80
469.38	12525.38
469.59	12799.80
469.80	12664.64
470.01	12597.06
470.21	12638.02
470.42	13084.47
470.63	13340.47
470.84	12934.97
471.04	13344.56
471.25	13291.32
471.46	13313.84
471.67	13639.47
471.87	13453.11
472.08	13426.48
472.29	13735.73
472.50	13551.41
472.70	13707.05
472.91	13784.88
473.12	14008.11
473.33	14212.90
473.53	14434.08
473.74	14360.36
473.95	14440.23
474.16	14706.46
474.36	14661.41
474.57	14696.22
474.78	15085.34
474.99	14815.01
475.19	14835.49
475.40	15187.74
475.61	15208.22
475.81	15339.29
476.02	15617.81
476.23	15363.86
476.44	15572.75
476.64	15669.01
476.85	15865.61
477.06	15933.20
477.27	16344.84
477.47	16338.69
477.68	16350.98
477.89	16305.93
478.09	16430.85
478.30	16506.63
478.51	16514.82
478.71	16649.99
478.92	16957.18
479.13	16832.26
479.34	17393.40
479.54	17196.79
479.75	17307.38
479.96	17387.25
480.16	17540.85
480.37	17692.40
480.58	17835.76
480.78	17901.29
480.99	18032.36
481.20	18247.40
481.41	18431.72
481.61	18415.34
481.82	18499.30
482.03	18433.77
482.23	18478.82
482.44	18747.11
482.65	19011.29
482.85	19142.36
483.06	18976.48
483.27	19269.34
483.47	19267.29
483.68	19719.89
483.89	19738.32
484.09	19443.42
484.30	19848.91
484.51	19777.23
484.71	20156.11
484.92	20125.39
485.13	20360.91
485.33	20455.11
485.54	20334.28
485.75	20594.37
485.95	20666.05
486.16	20821.70
486.37	20850.37
486.57	21038.78
486.78	21049.02
486.98	21018.30
487.19	21331.64
487.40	21436.09
487.60	21251.77
487.81	21917.36
488.02	21190.33
488.22	21757.62
488.43	21825.20
488.64	21937.84
488.84	22351.53
489.05	22077.10
489.25	22159.02
489.46	22505.13
489.67	22480.55
489.87	22703.78
490.08	22683.30
490.29	23150.24
490.49	23131.81
490.70	22945.44
490.90	23365.28
491.11	23312.03
491.32	23705.24
491.52	23393.95
491.73	23613.08
491.94	23680.66
492.14	23748.25
492.35	24229.52
492.55	24063.63
492.76	23981.71
492.97	24508.04
493.17	24360.59
493.38	24698.50
493.58	24723.08
493.79	25108.10
494.00	24798.85
494.20	25114.24
494.41	24919.68
494.61	24995.46
494.82	25257.60
495.02	25411.20
495.23	25165.44
495.44	25513.59
495.64	25665.14
495.85	25904.76
496.05	25802.36
496.26	25966.20
496.47	26097.27
496.67	26093.17
496.88	26521.20
497.08	26101.36
497.29	26566.25
497.49	26582.63
497.70	26519.15
497.91	26975.84
498.11	26584.68
498.32	26943.08
498.52	26947.17
498.73	27377.25
498.93	26828.39
499.14	27172.45
499.34	27375.20
499.55	27567.71
499.76	27412.06
499.96	27592.28
500.17	27776.60
500.37	27795.03
500.58	27463.26
500.78	27778.65
500.99	28141.14
501.19	28112.47
501.40	27958.87
501.60	28159.57
501.81	28376.66
502.02	28384.85
502.22	28243.54
502.43	28251.73
502.63	28626.51
502.84	28966.47
503.04	28821.06
503.25	28786.25
503.45	29150.79
503.66	29609.53
503.86	29060.68
504.07	29437.50
504.27	29017.67
504.48	29486.65
504.68	29521.47
504.89	29713.98
505.09	29799.99
505.30	29728.31
505.50	29527.61
505.71	29810.23
505.91	29902.39
506.12	30162.48
506.32	30010.93
506.53	30236.21
506.73	30228.02
506.94	30711.34
507.14	30256.69
507.35	30352.94
507.55	30420.53
507.76	30492.21
507.96	30234.16
508.17	30658.09
508.37	30866.98
508.58	30909.99
508.78	30551.60
508.99	31129.12
509.19	31258.15
509.40	31268.39
509.60	31194.66
509.81	31020.58
510.01	31151.65
510.22	31311.39
510.42	31282.72
510.63	31548.96
510.83	31387.17
511.04	31598.11
511.24	31776.28
511.44	31665.69
511.65	31983.13
511.85	31733.28
512.06	31929.88
512.26	32153.11
512.47	32296.47
512.67	32194.07
512.88	32122.39
513.08	32273.94
513.29	32103.96
513.49	32118.29
513.69	32359.95
513.90	32661.01
514.10	32304.66
514.31	32548.37
514.51	32427.54
514.72	32534.03
514.92	32962.06
515.13	33003.02
515.33	32824.84
515.53	32970.25
515.74	32710.16
515.94	33162.76
516.15	33031.69
516.35	33043.98
516.56	33455.62
516.76	33285.64
516.96	33486.34
517.17	33383.94
517.37	33310.21
517.58	33590.78
517.78	33678.85
517.99	33670.65
518.19	33797.63
518.39	33814.01
518.60	33791.48
518.80	33744.38
519.01	33910.27
519.21	34186.74
519.41	34350.58
519.62	34201.08
519.82	34336.24
520.03	34508.27
520.23	34430.45
520.43	34354.68
520.64	34641.39
520.84	34938.35
521.05	34739.69
521.25	35005.93
521.45	34745.84
521.66	34835.95
521.86	34856.43
522.07	35048.94
522.27	35083.75
522.47	35182.06
522.68	35935.71
522.88	35458.53
523.08	35644.90
523.29	35706.34
523.49	36175.32
523.70	35984.86
523.90	36351.45
524.10	35816.93
524.31	36181.46
524.51	35761.63
524.71	36771.28
524.92	36353.49
525.12	36722.13
525.33	36416.98
525.53	36572.63
525.73	36969.93
525.94	36799.95
526.14	36910.54
526.34	36969.93
526.55	37033.42
526.75	37285.32
526.95	37178.82
527.16	36967.88
527.36	37346.76
527.56	37674.43
527.77	37828.03
527.97	37752.26
528.17	37981.63
528.38	38045.12
528.58	38161.85
528.78	38530.48
528.99	38237.62
529.19	38763.95
529.39	38192.57
529.60	38708.66
529.80	38421.94
530.00	38202.81
530.21	38868.40
530.41	39163.31
530.61	38739.38
530.82	39275.94
531.02	38991.28
531.22	39089.58
531.43	39003.56
531.63	39589.28
531.83	39667.11
532.04	39714.21
532.24	39626.15
532.44	40144.28
532.64	39871.90
532.85	40064.41
533.05	40023.45
533.25	40203.67
533.46	40277.40
533.66	40727.95
533.86	40363.42
534.07	40766.87
534.27	40478.10
534.47	41168.27
534.67	41115.02
534.88	40799.63
535.08	41241.99
535.28	41260.43
535.49	41559.43
535.69	41579.91
535.89	41569.67
536.09	41733.51
536.30	41770.37
536.50	41862.53
536.70	41862.53
536.91	42218.88
537.11	41770.37
537.31	42659.19
537.51	42126.72
537.72	42276.22
537.92	42800.50
538.12	42556.79
538.32	42440.06
538.53	42972.53
538.73	42804.59
538.93	42782.07
539.13	42564.98
539.34	43144.56
539.54	43001.20
539.74	43486.57
539.94	43062.64
540.15	43634.02
540.35	43699.56
540.55	42982.77
540.75	43728.23
540.96	43642.21
541.16	43519.34
541.36	43529.58
541.56	43933.03
541.77	44127.58
541.97	44066.14
542.17	44209.50
542.37	43695.46
542.58	44481.88
542.78	44447.07
542.98	44477.79
543.18	44475.74
543.38	44584.28
543.59	44721.49
543.79	44549.46
543.99	44559.70
544.19	44801.36
544.40	45231.44
544.60	45202.77
544.80	44825.94
545.00	45235.53
545.20	45196.62
545.41	45327.69
545.61	45307.21
545.81	45272.40
546.01	45444.43
546.21	45684.04
546.42	45331.79
546.62	45704.52
546.82	45331.79
547.02	45677.90
547.22	45692.23
547.43	45600.07
547.63	46085.44
547.83	45884.74
548.03	45749.57
548.23	46204.22
548.44	46112.06
548.64	46265.66
548.84	46093.63
549.04	46570.81
549.24	46636.34
549.45	46699.83
549.65	46650.68
549.85	46540.09
550.05	46535.99
550.25	46568.76
550.45	47019.31
550.66	47088.95
550.86	46437.69
551.06	46929.20
551.26	47373.61
551.46	47068.47
551.66	46902.58
551.87	47117.62
552.07	47179.06
552.27	47004.98
552.47	47013.17
552.67	47281.45
552.87	47379.76
553.07	47568.17
553.28	47390.00
553.48	47566.12
553.68	47922.47
553.88	47922.47
554.08	47772.97
554.28	47418.67
554.48	47539.50
554.69	47758.63
554.89	47957.28
555.09	47883.56
555.29	47895.85
555.49	47830.31
555.69	48184.61
555.89	47711.53
556.10	48241.95
556.30	47727.91
556.50	48065.83
556.70	48323.87
556.90	48379.17
557.10	48500.00
557.30	47836.45
557.50	48348.45
557.70	48436.51
557.91	48651.55
558.11	48686.36
558.31	48524.57
558.51	48151.84
558.71	48547.10
558.91	48827.67
559.11	48481.56
559.31	48854.29
559.51	48581.91
559.72	48694.55
559.92	48506.14
560.12	48745.75
560.32	48885.01
560.52	48344.35
560.72	48940.31
560.92	49009.94
561.12	49098.00
561.32	49440.01
561.52	48577.82
561.72	49091.86
561.93	49198.35
562.13	49296.66
562.33	48893.21
562.53	49734.92
562.73	48430.36
562.93	49243.41
563.13	49030.42
563.33	49376.53
563.53	49517.84
563.73	49173.78
563.93	49091.86
564.13	49650.95
564.33	49370.38
564.53	49517.84
564.74	49644.81
564.94	49177.87
565.14	49440.01
565.34	49509.64
565.54	49278.22
565.74	49351.95
565.94	50105.60
566.14	49681.67
566.34	49542.41
566.54	50144.51
566.74	49394.96
566.94	50216.19
567.14	50308.35
567.34	49300.75
567.54	49984.77
567.74	49681.67
567.94	49925.38
568.14	50029.83
568.34	50109.70
568.54	50238.72
568.74	50134.28
568.94	50179.33
569.14	50255.11
569.34	50283.78
569.54	50574.59
569.75	50066.69
569.95	50228.48
570.15	50703.61
570.35	50529.53
570.55	50294.02
570.75	50124.04
570.95	50785.53
571.15	50640.12
571.35	50693.37
571.55	50986.23
571.75	50791.67
571.95	50748.67
572.15	50650.36
572.35	50572.54
572.55	50824.44
572.75	50832.63
572.95	50703.61
573.15	51143.92
573.35	51059.96
573.55	50650.36
573.75	50871.54
573.95	50971.89
574.15	50859.26
574.35	51440.88
574.55	50920.70
574.75	51236.08
574.95	51029.24
575.15	51287.28
575.34	51270.90
575.54	51170.55
575.74	51348.72
575.94	51807.47
576.14	51315.95
576.34	51682.54
576.54	51434.74
576.74	51404.02
576.94	51225.84
577.14	51608.81
577.34	51713.26
577.54	51424.50
577.74	51795.18
577.94	52215.01
578.14	51600.62
578.34	51967.21
578.54	51703.02
578.74	51686.64
578.94	52243.68
579.14	51498.22
579.34	52452.58
579.54	52329.70
579.74	52542.69
579.94	52346.08
580.13	52321.51
580.33	52468.96
580.53	52219.11
580.73	52337.89
580.93	52346.08
581.13	52616.41
581.33	52903.13
581.53	52655.32
581.73	52530.40
581.93	52878.55
582.13	52765.91
582.33	52735.20
582.53	52718.81
582.73	53118.17
582.92	53152.98
583.12	53181.65
583.32	53077.21
583.52	52837.59
583.72	53173.46
583.92	52802.78
584.12	53114.07
584.32	53740.75
584.52	53392.59
584.72	53425.36
584.92	53611.73
585.11	53974.22
585.31	53525.71
585.51	53654.73
585.71	53335.25
585.91	53570.77
586.11	53277.91
586.31	53605.58
586.51	53400.79
586.71	53462.22
586.91	53998.79
587.10	54101.19
587.30	53949.64
587.50	53875.91
587.70	53963.98
587.90	53750.99
588.10	53734.60
588.30	53722.32
588.50	54203.59
588.69	53875.91
588.89	53697.74
589.09	54234.31
589.29	54152.39
589.49	54531.26
589.69	53877.96
589.89	54248.64
590.08	54617.28
590.28	54158.53
590.48	54918.33
590.68	53867.72
590.88	54338.75
591.08	54439.11
591.28	54033.61
591.47	54824.12
591.67	54848.70
591.87	54736.06
592.07	54518.98
592.27	54901.95
592.47	54230.21
592.67	54736.06
592.86	54475.97
593.06	55129.27
593.26	54654.14
593.46	55051.45
593.66	54551.74
593.86	54830.27
594.05	54713.53
594.25	54699.20
594.45	54785.21
594.65	54977.72
594.85	54666.43
595.05	55108.79
595.24	54490.30
595.44	55174.33
595.64	55016.63
595.84	55407.79
596.04	55641.26
596.23	55190.71
596.43	55327.92
596.63	55116.98
596.83	55622.83
597.03	55243.96
597.22	55516.34
597.42	55246.00
597.62	55608.50
597.82	55635.12
598.02	55446.71
598.21	55762.09
598.41	55309.49
598.61	55676.08
598.81	55477.43
599.01	55819.44
599.20	55854.25
599.40	55690.41
599.60	56456.35
599.80	55981.23
600.00	56261.80
600.19	55903.40
600.39	56104.10
600.59	56603.81
600.79	56482.98
600.98	56235.17
601.18	56186.02
601.38	56433.83
601.58	56521.89
601.78	56186.02
601.97	56114.34
602.17	56976.54
602.37	56505.51
602.57	56538.27
602.76	57162.90
602.96	56347.81
603.16	57169.05
603.36	56636.58
603.55	56951.96
603.75	56906.91
603.95	56808.61
604.15	56788.13
604.34	56528.03
604.54	57087.13
604.74	56917.15
604.94	56767.65
605.13	57203.86
605.33	57080.98
605.53	56824.99
605.73	57619.60
605.92	57113.75
606.12	57148.57
606.32	57760.91
606.52	57402.52
606.71	56960.15
606.91	57756.81
607.11	56943.77
607.30	57320.60
607.50	57138.33
607.70	57447.57
607.90	57228.44
608.09	57568.40
608.29	57674.90
608.49	57488.53
608.68	57121.94
608.88	57711.76
609.08	57791.63
609.28	57509.01
609.47	57257.11
609.67	57771.15
609.87	57210.01
610.06	57838.73
610.26	57812.11
610.46	57717.90
610.66	57949.32
610.85	58209.42
611.05	57291.93
611.25	57652.37
611.44	57685.14
611.64	57818.25
611.84	57881.74
612.03	57418.90
612.23	57572.50
612.43	57906.32
612.62	57336.98
612.82	57662.61
613.02	57488.53
613.21	58219.66
613.41	57509.01
613.61	57896.08
613.80	57423.00
614.00	57828.49
614.20	57791.63
614.39	57760.91
614.59	58070.15
614.79	57758.86
614.98	57871.50
615.18	57717.90
615.38	57670.80
615.57	57805.97
615.77	57472.15
615.97	58188.94
616.16	57767.05
616.36	57799.82
616.56	57951.37
616.75	57644.18
616.95	57463.96
617.15	57810.06
617.34	57736.34
617.54	56947.87
617.74	57998.48
617.93	57691.28
618.13	57230.49
618.32	57820.30
618.52	57152.66
618.72	57439.38
618.91	57494.67
619.11	57529.49
619.31	57509.01
619.50	57242.77
619.70	57711.76
619.90	57502.87
620.09	57767.05
620.29	57650.32
620.48	57285.78
620.68	57466.00
620.88	57009.31
621.07	57379.99
621.27	57379.99
621.46	56976.54
621.66	57064.60
621.86	56943.77
622.05	57369.75
622.25	57771.15
622.44	56843.42
622.64	57189.53
622.84	57115.80
623.03	57451.67
623.23	57449.62
623.42	57138.33
623.62	57193.62
623.82	57336.98
624.01	56921.24
624.21	57283.73
624.40	56749.21
624.60	57318.55
624.80	56884.38
624.99	57339.03
625.19	56851.61
625.38	57273.49
625.58	57150.62
625.77	56990.87
625.97	56882.33
626.17	56972.44
626.36	56745.12
626.56	56771.74
626.75	56519.84
626.95	57427.09
627.14	56847.52
627.34	57554.07
627.54	56722.59
627.73	57066.65
627.93	56716.45
628.12	56597.66
628.32	56548.51
628.51	56515.75
628.71	57109.66
628.90	56779.93
629.10	56272.04
629.30	57007.26
629.49	56726.69
629.69	56560.80
629.88	56614.05
630.08	56927.39
630.27	56759.45
630.47	56865.95
630.66	56554.66
630.86	56544.42
631.05	56820.89
631.25	57177.24
631.44	56403.11
631.64	56822.94
631.84	56501.41
632.03	56990.87
632.23	56544.42
632.42	56673.44
632.62	57095.32
632.81	56013.99
633.01	56575.14
633.20	56788.13
633.40	56632.48
633.59	56599.71
633.79	56368.29
633.98	56939.68
634.18	56951.96
634.37	56581.28
634.57	56599.71
634.76	57205.91
634.96	56612.00
635.15	56655.01
635.35	56423.59
635.54	56368.29
635.74	56724.64
635.93	56284.33
636.13	56497.31
636.32	56396.96
636.52	56607.90
636.71	56401.06
636.91	56601.76
637.10	56409.25
637.30	56384.68
637.49	56650.91
637.69	56450.21
637.88	56661.15
638.08	56304.80
638.27	56736.93
638.46	56560.80
638.66	56226.98
638.85	56462.50
639.05	56790.17
639.24	56525.99
639.44	56382.63
639.63	56603.81
639.83	56525.99
640.02	56431.78
640.22	56546.47
640.41	56759.45
640.61	55985.32
640.80	56640.67
640.99	55979.18
641.19	56763.55
641.38	56538.27
641.58	56556.70
641.77	56110.25
641.97	55989.42
642.16	56218.79
642.36	56151.21
642.55	56622.24
642.74	56171.69
642.94	56847.52
643.13	56458.40
643.33	56661.15
643.52	56442.02
643.72	56691.87
643.91	56579.23
644.10	56288.42
644.30	56851.61
644.49	56640.67
644.69	56868.00
644.88	56439.97
645.08	55968.94
645.27	56235.17
645.46	56485.03
645.66	56190.12
645.85	56022.19
646.05	56511.65
646.24	56485.03
646.43	56575.14
646.63	56804.51
646.82	56784.03
647.02	56784.03
647.21	56599.71
647.40	56478.88
647.60	56577.18
647.79	56755.36
647.99	56671.39
648.18	56179.88
648.37	56853.66
648.57	56794.27
648.76	56439.97
648.96	56433.83
649.15	56933.53
649.34	56974.49
649.54	56804.51
649.73	56581.28
649.92	56413.35
650.12	56333.48
650.31	56890.52
650.51	56726.69
650.70	56507.55
650.89	56802.46
651.09	57207.96
651.28	56448.16
651.47	56851.61
651.67	57070.75
651.86	56902.81
652.06	56046.76
652.25	56675.49
652.44	56771.74
652.64	56366.24
652.83	56407.20
653.02	56392.87
653.22	56509.60
653.41	56335.52
653.60	56302.76
653.80	56480.93
653.99	56741.02
654.18	56198.31
654.38	56374.44
654.57	56679.58
654.76	56614.05
654.96	56378.53
655.15	56333.48
655.34	56325.28
655.54	56206.50
655.73	55987.37
655.92	56542.37
656.12	56120.49
656.31	56423.59
656.50	56065.19
656.70	56186.02
656.89	56183.97
657.08	56648.86
657.28	56161.45
657.47	56046.76
657.66	56169.64
657.86	56386.72
658.05	56487.07
658.24	56108.20
658.43	56401.06
658.63	56450.21
658.82	56525.99
659.01	56669.34
659.21	56525.99
659.40	56581.28
659.59	55905.45
659.79	56407.20
659.98	56405.16
660.17	56087.72
660.36	56415.40
660.56	56306.85
660.75	56538.27
660.94	55657.65
661.14	56325.28
661.33	56255.65
661.52	55948.46
661.71	56685.73
661.91	55905.45
662.10	55938.22
662.29	56349.86
662.49	55919.79
662.68	56210.60
662.87	55899.31
663.06	55962.79
663.26	56112.30
663.45	56296.61
663.64	56177.83
663.83	56624.29
664.03	56022.19
664.22	56278.18
664.41	55966.89
664.60	55741.61
664.80	55610.54
664.99	55911.59
665.18	55989.42
665.37	55712.94
665.57	55870.64
665.76	55743.66
665.95	55796.91
666.14	55327.92
666.34	55903.40
666.53	55841.96
666.72	56042.66
666.91	55372.98
667.11	55250.10
667.30	55340.21
667.49	55901.36
667.68	55733.42
667.87	55686.32
668.07	55872.68
668.26	55669.93
668.45	55538.86
668.64	55366.84
668.84	55923.88
669.03	55950.51
669.22	55375.03
669.41	55286.96
669.60	55821.48
669.80	55397.55
669.99	55671.98
670.18	55710.89
670.37	55403.70
670.57	55368.88
670.76	55440.56
670.95	55622.83
671.14	55602.35
671.33	55049.40
671.53	55616.69
671.72	55205.05
671.91	55418.03
672.10	55561.39
672.29	55618.74
672.48	55364.79
672.68	55364.79
672.87	55190.71
673.06	55315.64
673.25	55174.33
673.44	54584.51
673.64	55334.07
673.83	54979.77
674.02	54817.98
674.21	54914.23
674.40	55514.29
674.59	54793.40
674.79	54883.51
674.98	54840.51
675.17	54744.25
675.36	54809.79
675.55	55205.05
675.74	54508.74
675.94	54629.57
676.13	54932.67
676.32	54488.26
676.51	55162.04
676.70	55239.86
676.89	55123.13
677.08	54826.17
677.28	54265.03
677.47	54918.33
677.66	54721.72
677.85	54787.26
678.04	54871.23
678.23	54901.95
678.42	54707.39
678.62	54797.50
678.81	54871.23
679.00	54402.24
679.19	54383.81
679.38	54719.68
679.57	54426.82
679.76	54598.85
679.96	54594.75
680.15	54453.44
680.34	54596.80
680.53	54416.58
680.72	54246.60
680.91	54670.53
681.10	54076.61
681.29	54129.86
681.48	54703.29
681.68	54348.99
681.87	54062.28
682.06	54095.05
682.25	53619.92
682.44	54037.70
682.63	54105.29
682.82	53863.63
683.01	53613.77
683.20	53343.44
683.39	53990.60
683.59	53687.50
683.78	53681.36
683.97	53521.62
684.16	53777.61
684.35	53716.17
684.54	53578.96
684.73	53109.97
684.92	53439.70
685.11	53277.91
685.30	53066.97
685.49	53542.10
685.69	53327.06
685.88	53353.68
686.07	53353.68
686.26	53447.89
686.45	53066.97
686.64	53359.83
686.83	53376.21
687.02	53355.73
687.21	53325.01
687.40	52925.66
687.59	53103.83
687.78	53091.54
687.97	53290.19
688.16	52841.69
688.35	52978.90
688.54	52878.55
688.74	53036.25
688.93	52571.36
689.12	53144.79
689.31	52735.20
689.50	52679.90
689.69	52331.75
689.88	52274.40
690.07	52600.03
690.26	52702.43
690.45	53122.26
690.64	52737.24
690.83	52282.59
691.02	52739.29
691.21	52452.58
691.40	52458.72
691.59	52346.08
691.78	51873.00
691.97	52567.26
692.16	52184.29
692.35	52344.03
692.54	52626.65
692.73	52016.36
692.92	51875.05
693.11	52354.27
693.30	52069.61
693.49	51963.11
693.68	52047.08
693.87	52356.32
694.06	51844.33
694.25	51709.16
694.44	51512.56
694.63	51834.09
694.82	51772.65
695.01	51574.00
695.20	51582.19
695.39	51545.33
695.58	51358.96
695.77	51905.77
695.96	51340.53
696.15	51909.86
696.34	51363.06
696.53	51358.96
696.72	51606.76
696.91	51758.31
697.10	51291.38
697.29	51274.99
697.48	51354.86
697.67	50943.22
697.86	50877.69
698.05	50730.23
698.24	51295.47
698.43	50806.01
698.62	51262.71
698.81	50713.85
699.00	51197.17
699.19	50580.73
699.38	50744.57
699.57	50308.35
699.76	51231.99
699.95	50607.36
700.14	50435.33
700.32	50701.56
700.51	50525.44
700.70	50658.56
700.89	50834.68
701.08	50670.84
701.27	50449.66
701.46	50756.86
701.65	49812.74
701.84	50734.33
702.03	50496.77
702.22	50359.55
702.41	50504.96
702.60	50093.32
702.79	50418.94
702.98	50224.39
703.17	50144.51
703.35	50253.06
703.54	49843.46
703.73	50132.23
703.92	49624.33
704.11	49702.15
704.30	49898.76
704.49	50095.36
704.68	49587.47
704.87	49593.61
705.06	49593.61
705.25	49239.31
705.43	49401.10
705.62	49679.63
705.81	49548.56
706.00	49526.03
706.19	49431.82
706.38	49227.02
706.57	49251.60
706.76	49505.55
706.95	49229.07
707.14	49147.15
707.32	48823.58
707.51	49044.76
707.70	49245.46
707.89	48919.83
708.08	49270.03
708.27	48768.28
708.46	49108.24
708.65	48825.62
708.84	48727.32
709.02	48889.11
709.21	49079.57
709.40	48485.66
709.59	48461.08
709.78	48278.82
709.97	48626.97
710.16	48616.73
710.34	48258.34
710.53	48456.99
710.72	48319.77
710.91	48280.86
711.10	48506.14
711.29	48717.08
711.48	48155.94
711.66	48024.87
711.85	48153.89
712.04	48432.41
712.23	48141.60
712.42	48166.18
712.61	47766.82
712.80	48112.93
712.98	48233.76
713.17	47744.30
713.36	47719.72
713.55	48010.53
713.74	47768.87
713.93	47850.79
714.11	47777.06
714.30	47588.65
714.49	47529.26
714.68	47764.78
714.87	47547.69
715.06	47291.69
715.24	47410.48
715.43	47240.50
715.62	47433.00
715.81	47277.36
716.00	47504.68
716.18	47170.86
716.37	47076.66
716.56	46820.66
716.75	47355.18
716.94	47058.23
717.12	46765.37
717.31	46724.41
717.50	46529.85
717.69	46773.56
717.88	46888.24
718.06	46884.15
718.25	46961.97
718.44	46531.90
718.63	46476.60
718.82	46585.15
719.00	46304.57
719.19	46302.53
719.38	46241.09
719.57	46140.74
719.76	46036.29
719.94	45737.29
720.13	45872.45
720.32	45907.27
720.51	45897.03
720.69	46183.74
720.88	45616.46
721.07	46132.54
721.26	45591.88
721.44	45233.49
721.63	45256.01
721.82	45120.85
722.01	44901.71
722.20	45708.61
722.38	45512.01
722.57	44823.89
722.76	45274.45
722.95	45331.79
723.13	44899.67
723.32	45208.91
723.51	44799.32
723.70	44711.25
723.88	44803.41
724.07	44504.41
724.26	45012.31
724.44	44186.97
724.63	44780.88
724.82	44479.83
725.01	44574.04
725.19	44426.59
725.38	44639.57
725.57	44737.88
725.76	44782.93
725.94	44092.77
726.13	44217.69
726.32	44305.76
726.51	44016.99
726.69	44502.36
726.88	43935.07
727.07	44236.12
727.25	44240.22
727.44	44127.58
727.63	44098.91
727.82	43859.30
728.00	43814.24
728.19	43978.08
728.38	44105.06
728.56	43574.63
728.75	44178.78
728.94	43806.05
729.12	43906.40
729.31	43873.63
729.50	43892.07
729.69	43857.25
729.87	43400.55
730.06	43939.17
730.25	43724.13
730.43	44168.54
730.62	43681.13
730.81	43695.46
730.99	43890.02
731.18	43593.06
731.37	43298.16
731.55	43570.54
731.74	43928.93
731.93	43851.11
732.11	43468.14
732.30	43697.51
732.49	43535.72
732.67	43707.75
732.86	43496.81
733.05	44107.10
733.23	42995.06
733.42	43404.65
733.61	43013.49
733.79	43375.98
733.98	43509.10
734.17	43554.15
734.35	42792.31
734.54	43023.73
734.73	43607.40
734.91	43091.31
735.10	43058.54
735.29	43437.42
735.47	42607.99
735.66	42685.81
735.84	43134.32
736.03	42739.06
736.22	43046.26
736.40	42833.27
736.59	43175.28
736.78	43074.93
736.96	42780.02
737.15	42890.61
737.33	42466.68
737.52	42786.16
737.71	42915.19
737.89	42653.05
738.08	42589.56
738.27	42734.96
738.45	42747.25
738.64	42673.52
738.82	42718.58
739.01	42702.20
739.20	42409.34
739.38	42372.47
739.57	42579.32
739.75	42102.14
739.94	42364.28
740.13	42454.39
740.31	42327.42
740.50	41956.74
740.68	42278.27
740.87	42474.87
741.06	42136.96
741.24	41979.26
741.43	41350.54
741.61	41749.89
741.80	42302.84
741.99	42227.07
742.17	42089.85
742.36	42083.71
742.54	41657.73
742.73	41721.22
742.91	42034.56
743.10	41350.54
743.29	42042.75
743.47	41805.19
743.66	41518.47
743.84	41633.16
744.03	41246.09
744.21	41215.37
744.40	41532.81
744.59	41379.21
744.77	41262.47
744.96	41166.22
745.14	41301.39
745.33	41528.71
745.51	41340.30
745.70	41323.91
745.88	41014.67
746.07	41266.57
746.26	40818.07
746.44	41129.36
746.63	40998.29
746.81	41188.75
747.00	41108.88
747.18	41182.60
747.37	41264.52
747.55	41119.12
747.74	40992.14
747.92	40719.76
748.11	40750.48
748.29	40615.32
748.48	41182.60
748.66	40781.20
748.85	40713.62
749.03	40826.26
749.22	40580.50
749.41	40619.41
749.59	40766.87
749.78	40312.22
749.96	40277.40
750.15	40465.81
750.33	40347.03
750.52	40301.98
750.70	40320.41
750.89	40506.77
751.07	40158.62
751.26	40050.08
751.44	39984.54
751.63	40017.31
751.81	40146.33
752.00	39964.06
752.18	40377.75
752.37	39763.36
752.55	39714.21
752.74	39581.09
752.92	39736.74
753.10	39654.82
753.29	39787.94
753.47	39763.36
753.66	39271.85
753.84	39884.19
754.03	39425.45
754.21	39134.63
754.40	39806.37
754.58	40082.84
754.77	39644.58
754.95	39456.17
755.14	39353.77
755.32	39439.78
755.51	39042.48
755.69	39314.86
755.88	39001.52
756.06	39372.20
756.24	38886.83
756.43	38780.34
756.61	39361.96
756.80	38917.55
756.98	38968.75
757.17	38856.11
757.35	38890.93
757.54	38667.70
757.72	38696.37
757.90	38763.95
758.09	38684.08
758.27	38606.26
758.46	38333.88
758.64	38630.83
758.83	38782.38
759.01	38786.48
759.19	38569.40
759.38	38018.49
759.56	38831.54
759.75	38507.96
759.93	38167.99
760.12	37987.77
760.30	38245.82
760.48	38114.75
760.67	38077.88
760.85	38321.59
761.04	38223.29
761.22	38505.91
761.40	38116.79
761.59	38094.27
761.77	37778.88
761.96	37811.65
762.14	37868.99
762.32	37432.77
762.51	37555.65
762.69	37664.19
762.88	37545.41
763.06	37531.08
763.24	37510.60
763.43	37709.25
763.61	37219.78
763.80	37219.78
763.98	37500.36
764.16	37242.31
764.35	37227.98
764.53	37078.47
764.72	37463.49
764.90	37508.55
765.08	37569.99
765.27	37176.78
765.45	37125.58
765.63	36802.00
765.82	37103.05
766.00	36478.42
766.18	36969.93
766.37	37197.26
766.55	36722.13
766.74	36859.34
766.92	36654.54
767.10	36857.29
767.29	36871.63
767.47	36439.51
767.65	36808.14
767.84	36328.92
768.02	36732.37
768.20	35972.57
768.39	36615.63
768.57	36435.41
768.75	36433.36
768.94	36453.84
769.12	36050.39
769.30	35759.58
769.49	35904.99
769.67	35943.90
769.85	35831.26
770.04	36066.78
770.22	35964.38
770.40	35845.60
770.59	35694.05
770.77	35632.61
770.95	35401.19
771.14	35442.15
771.32	35380.71
771.50	35286.50
771.69	35710.43
771.87	35585.50
772.05	35231.21
772.24	35128.81
772.42	35153.38
772.60	35161.58
772.78	34946.54
772.97	35130.86
773.15	35059.18
773.33	35196.39
773.52	35016.17
773.70	35159.53
773.88	34987.50
774.07	35046.89
774.25	34702.83
774.43	35282.41
774.61	34774.51
774.80	34889.20
774.98	34944.49
775.16	35116.52
775.34	35266.02
775.53	34600.43
775.71	34903.53
775.89	35188.20
776.08	35216.87
776.26	35145.19
776.44	35112.42
776.62	34788.85
776.81	35173.86
776.99	35120.62
777.17	35042.79
777.35	35573.22
777.54	35171.82
777.72	35075.56
777.90	34756.08
778.08	35198.44
778.27	35085.80
778.45	35247.59
778.63	35612.13
778.81	35126.76
779.00	35517.92
779.18	34924.01
779.36	35429.86
779.54	35145.19
779.73	35270.12
779.91	35481.06
780.09	35366.37
780.27	35386.85
780.46	35345.89
780.64	35605.98
780.82	35298.79
781.00	35180.01
781.19	35517.92
781.37	35395.04
781.55	35628.51
781.73	35603.94
781.91	35696.10
782.10	35409.38
782.28	35726.81
782.46	35436.00
782.64	35857.88
782.82	35081.70
783.01	35941.85
783.19	35689.95
783.37	35786.21
783.55	35309.03
783.74	35716.58
783.92	35538.40
784.10	35632.61
784.28	35452.39
784.46	35180.01
784.64	35104.23
784.83	35315.17
785.01	35347.94
785.19	35360.23
785.37	35276.26
785.55	35438.05
785.74	35182.06
785.92	35323.36
786.10	35415.52
786.28	35317.22
786.46	34946.54
786.64	35046.89
786.83	35186.15
787.01	35096.04
787.19	35210.73
787.37	35059.18
787.55	34631.15
787.74	34858.48
787.92	34794.99
788.10	34846.19
788.28	34766.32
788.46	34928.11
788.64	34592.24
788.82	34747.89
789.01	34786.80
789.19	34973.16
789.37	34772.46
789.55	34768.37
789.73	34360.82
789.91	34598.38
790.09	34412.02
790.28	34569.71
790.46	34178.55
790.64	34526.71
790.82	34375.16
791.00	33660.41
791.18	33865.21
791.36	34024.95
791.55	33955.32
791.73	33588.74
791.91	33506.82
792.09	33707.52
792.27	33607.17
792.45	33353.22
792.63	33676.80
792.81	33590.78
793.00	33089.03
793.18	33191.43
793.36	33238.53
793.54	32792.08
793.72	33000.97
793.90	33129.99
794.08	32988.68
794.26	32724.49
794.44	32839.18
794.62	32593.42
794.81	32943.63
794.99	32583.18
795.17	32765.45
795.35	32400.91
795.53	32273.94
795.71	32542.22
795.89	32110.10
796.07	31901.21
796.25	32157.21
796.43	31837.72
796.61	31688.22
796.80	31931.93
796.98	31807.00
797.16	31718.94
797.34	31778.33
797.52	31317.54
797.70	31741.47
797.88	31516.19
798.06	31276.58
798.24	31231.52
798.42	31268.39
798.60	31000.10
798.78	31262.24
798.96	31286.82
799.14	30907.94
799.32	30703.15
799.51	30912.04
799.69	30981.67
799.87	30938.66
800.05	30615.08
800.23	30645.80
800.41	30467.63
800.59	30594.61
800.77	30563.89
800.95	30365.23
801.13	30451.25
801.31	30144.05
801.49	30473.78
801.67	29986.36
801.85	29863.48
802.03	29728.31
802.21	29374.02
802.39	29683.26
802.57	29713.98
802.75	29756.99
802.93	29709.88
803.11	29492.80
803.29	29644.35
803.47	29548.09
803.65	29181.51
803.83	29421.12
804.01	29374.02
804.19	29099.59
804.37	28847.69
804.55	28902.98
804.73	28816.97
804.91	28864.07
805.09	28741.19
805.27	28804.68
805.45	28870.22
805.63	29136.45
805.81	28712.52
805.99	28468.81
806.17	28497.49
806.35	28530.25
806.53	28026.45
806.71	28239.44
806.89	28317.26
807.07	28075.60
807.25	28046.93
807.43	27864.66
807.61	28057.17
807.79	27885.14
807.97	27704.92
808.15	27817.56
808.33	27614.81
808.51	27864.66
808.69	27844.18
808.87	27479.64
809.05	27631.19
809.23	27461.21
809.41	27237.98
809.59	27502.17
809.77	27590.24
809.95	26977.89
810.13	27031.14
810.31	27168.35
810.49	27025.00
810.67	27022.95
810.84	26916.45
811.02	26793.58
811.20	26781.29
811.38	26609.26
811.56	26445.42
811.74	26822.25
811.92	26797.67
812.10	26613.35
812.28	26711.66
812.46	26404.46
812.64	26324.59
812.82	26556.01
813.00	26252.91
813.18	26420.84
813.36	26197.62
813.53	25980.53
813.71	26160.75
813.89	25880.18
814.07	26021.49
814.25	25884.28
814.43	25861.75
814.61	25915.00
814.79	25538.17
814.97	25732.73
815.15	25824.89
815.33	25501.31
815.50	25607.80
815.68	25718.39
815.86	25501.31
816.04	25142.91
816.22	25374.33
816.40	25521.79
816.58	25233.02
816.76	25304.70
816.94	25173.63
817.11	25155.20
817.29	25034.37
817.47	25050.75
817.65	25042.56
817.83	25036.42
818.01	24727.17
818.19	24749.70
818.37	24495.75
818.54	24524.43
818.72	24540.81
818.90	24528.52
819.08	24569.48
819.26	24749.70
819.44	24645.26
819.62	24696.46
819.80	24620.68
819.97	24319.63
820.15	24647.30
820.33	24139.41
820.51	24415.88
820.69	24278.67
820.87	24528.52
821.05	24299.15
821.22	24149.65
821.40	24194.70
821.58	24217.23
821.76	23983.76
821.94	23979.67
822.12	23791.25
822.29	24112.78
822.47	23783.06
822.65	23774.87
822.83	23858.84
823.01	23748.25
823.19	23703.19
823.36	23819.92
823.54	23565.98
823.72	23391.90
823.90	23692.95
824.08	23199.39
824.25	23529.11
824.43	23146.14
824.61	23352.99
824.79	23367.32
824.97	23244.45
825.15	23312.03
825.32	23084.70
825.50	22906.53
825.68	23258.78
825.86	23199.39
826.04	23262.88
826.21	22861.48
826.39	23013.02
826.57	22859.43
826.75	22935.20
826.93	22916.77
827.10	22707.88
827.28	22965.92
827.46	22834.85
827.64	22953.63
827.81	22460.07
827.99	22886.05
828.17	22490.79
828.35	22425.26
828.53	22605.48
828.70	22541.99
828.88	22607.53
829.06	22554.28
829.24	22677.16
829.41	22455.98
829.59	22435.50
829.77	22337.20
829.95	22324.91
830.12	22601.38
830.30	22474.41
830.48	22212.27
830.66	22077.10
830.84	22496.94
831.01	22245.04
831.19	22083.25
831.37	21882.55
831.55	21972.66
831.72	21874.35
831.90	22009.52
832.08	22208.17
832.25	21872.31
832.43	21958.32
832.61	21647.03
832.79	21485.24
832.96	21749.43
833.14	21499.58
833.32	21647.03
833.50	21925.55
833.67	21509.82
833.85	21628.60
834.03	21452.47
834.20	21604.02
834.38	21442.23
834.56	21554.87
834.74	21485.24
834.91	21477.05
835.09	21280.44
835.27	21006.02
835.44	21221.05
835.62	20684.48
835.80	21151.42
835.98	20991.68
836.15	21114.56
836.33	20909.76
836.51	21298.88
836.68	20848.32
836.86	21167.80
837.04	20907.71
837.21	21110.46
837.39	21169.85
837.57	20952.77
837.75	20987.58
837.92	20379.34
838.10	20682.44
838.28	20635.33
838.45	20889.28
838.63	20629.19
838.81	20668.10
838.98	20446.92
839.16	20631.24
839.34	20299.47
839.51	20553.41
839.69	20387.53
839.87	20135.63
840.04	20500.17
840.22	20311.75
840.40	20324.04
840.57	20195.02
840.75	20508.36
840.93	20379.34
841.10	20162.25
841.28	20268.75
841.46	20100.81
841.63	20240.08
841.81	20397.77
841.98	20076.24
842.16	19930.83
842.34	20111.05
842.51	19795.67
842.69	20221.64
842.87	20106.96
843.04	19920.59
843.22	19883.73
843.40	19896.02
843.57	19934.93
843.75	20238.03
843.92	19797.71
844.10	19814.10
844.28	19850.96
844.45	19742.42
844.63	19971.79
844.81	19560.15
844.98	19848.91
845.16	19351.26
845.33	19623.64
845.51	19298.01
845.69	19603.16
845.86	19351.26
846.04	19400.41
846.21	19547.86
846.39	19328.73
846.57	19623.64
846.74	19422.94
846.92	19166.94
847.09	19324.63
847.27	19142.36
847.45	19451.61
847.62	19312.35
847.80	19361.50
847.97	19287.77
848.15	19144.41
848.32	19252.95
848.50	19128.03
848.68	19072.73
848.85	19080.92
849.03	18966.24
849.20	19148.51
849.38	18896.61
849.56	19015.39
849.73	18968.29
849.91	18720.48
850.08	19031.77
850.26	18661.09
850.43	18863.84
850.61	18853.60
850.78	18456.29
850.96	18466.53
851.14	18710.24
851.31	18685.67
851.49	18642.66
851.66	18495.21
851.84	18718.43
852.01	18806.50
852.19	18556.64
852.36	18284.26
852.54	18540.26
852.71	18499.30
852.89	18335.46
853.07	18263.79
853.24	18437.86
853.42	18282.22
853.59	18134.76
853.77	18476.77
853.94	18333.42
854.12	18392.81
854.29	18138.86
854.47	18179.82
854.64	18134.76
854.82	17860.34
854.99	17934.06
855.17	18177.77
855.34	17970.93
855.52	18087.66
855.69	18118.38
855.87	17923.82
856.04	17788.66
856.22	18077.42
856.39	17858.29
856.57	17770.22
856.74	17786.61
856.92	17522.42
857.09	17454.84
857.27	17393.40
857.44	17854.19
857.62	17536.76
857.79	17635.06
857.97	17620.72
858.14	17684.21
858.32	17354.49
858.49	17592.05
858.67	17667.83
858.84	17688.31
859.02	17725.17
859.19	17336.06
859.37	17366.78
859.54	17256.18
859.72	17688.31
859.89	17151.74
860.06	17540.85
860.24	17377.01
860.41	17217.27
860.59	17139.45
860.76	17211.13
860.94	16897.79
861.11	17143.55
861.29	17219.32
861.46	17057.53
861.64	16983.80
861.81	16803.58
861.98	17061.63
862.16	16889.60
862.33	16809.73
862.51	16797.44
862.68	16764.67
862.86	16910.08
863.03	16822.02
863.21	16680.71
863.38	16543.49
863.55	16850.69
863.73	16754.43
863.90	16680.71
864.08	16697.09
864.25	16656.13
864.43	16527.11
864.60	16725.76
864.77	16547.59
864.95	16516.87
865.12	16502.53
865.30	16355.08
865.47	16441.09
865.64	16449.28
865.82	16520.96
865.99	16404.23
866.17	16568.07
866.34	16248.58
866.51	16299.78
866.69	16322.31
866.86	16361.22
867.04	16258.82
867.21	16154.38
867.38	16156.43
867.56	15830.80
867.73	16103.18
867.91	16015.12
868.08	15740.69
868.25	16113.42
868.43	15838.99
868.60	15976.20
868.78	15791.89
868.95	15963.92
869.12	16043.79
869.30	15863.57
869.47	15945.48
869.64	15779.60
869.82	15734.54
869.99	15580.95
870.16	15886.09
870.34	15695.63
870.51	15374.10
870.69	15662.86
870.86	15480.60
871.03	15646.48
871.21	15478.55
871.38	15417.11
871.55	15439.64
871.73	15247.13
871.90	15232.79
872.07	15267.61
872.25	15073.05
872.42	15306.52
872.59	15488.79
872.77	14989.08
872.94	15161.11
873.11	15195.93
873.29	15038.23
873.46	14851.87
873.63	15007.52
873.81	15109.91
873.98	14825.25
874.15	14944.03
874.33	14614.30
874.50	14683.94
874.67	14765.85
874.85	14585.63
875.02	14720.80
875.19	14755.61
875.37	14636.83
875.54	14505.76
875.71	14642.98
875.88	14372.64
876.06	14593.83
876.23	14475.04
876.40	14270.25
876.58	14499.62
876.75	14237.48
876.92	14288.68
877.10	14307.11
877.27	14262.05
877.44	14399.27
877.61	14204.71
877.79	14083.88
877.96	14309.16
878.13	14223.14
878.31	13813.55
878.48	13903.66
878.65	14020.39
878.82	13965.10
879.00	13852.46
879.17	13918.00
879.34	14100.26
879.51	13825.84
879.69	13494.07
879.86	13700.91
880.03	13819.69
880.21	13698.86
880.38	13772.59
880.55	13899.56
880.72	13674.29
880.90	13668.14
881.07	13641.52
881.24	13635.38
881.41	13823.79
881.59	13539.12
881.76	13592.37
881.93	13457.20
882.10	13508.40
882.28	13492.02
882.45	13555.51
882.62	13608.75
882.79	13592.37
882.96	13342.52
883.14	13399.86
883.31	13612.85
883.48	13514.55
883.65	13383.48
883.83	13422.39
884.00	13324.08
884.17	13457.20
884.34	13559.60
884.51	13410.10
884.69	13379.38
884.86	13397.81
885.03	13197.11
885.20	13162.30
885.38	13258.55
885.55	13283.13
885.72	13127.48
885.89	13176.63
886.06	13068.09
886.24	13125.43
886.41	13057.85
886.58	13285.17
886.75	13229.88
886.92	13102.90
887.10	13004.60
887.27	12873.53
887.44	12885.82
887.61	12959.55
887.78	12973.88
887.95	13051.70
888.13	12955.45
888.30	12801.85
888.47	12851.00
888.64	12812.09
888.81	12644.16
888.99	12595.01
889.16	12793.66
889.33	12693.31
889.50	12642.11
889.67	12629.82
889.84	12484.42
890.01	12588.86
890.19	12576.58
890.36	12691.26
890.53	12588.86
890.70	12644.16
890.87	12502.85
891.04	12369.73
891.22	12300.10
891.39	12656.45
891.56	12363.59
891.73	12443.46
891.90	12271.43
892.07	12410.69
892.24	12435.27
892.42	12351.30
892.59	12283.72
892.76	12361.54
892.93	12212.04
893.10	12226.37
893.27	12121.93
893.44	12369.73
893.61	12289.86
893.79	12230.47
893.96	12189.51
894.13	12097.35
894.30	12197.70
894.47	12345.16
894.64	12269.38
894.81	12240.71
894.98	11968.33
895.15	12091.21
895.33	12146.50
895.50	12046.15
895.67	12080.97
895.84	12109.64
896.01	11958.09
896.18	12027.72
896.35	12126.02
896.52	12029.77
896.69	12025.67
896.86	12099.40
897.04	11784.01
897.21	12050.25
897.38	11890.51
897.55	12042.06
897.72	12097.35
897.89	11910.99
898.06	11884.36
898.23	12025.67
898.40	12033.86
898.57	12152.65
898.74	11810.64
898.91	12111.69
899.08	11980.62
899.26	11808.59
899.43	11878.22
899.60	11927.37
899.77	11908.94
899.94	12152.65
900.11	12009.29
900.28	11843.40
900.45	12040.01
900.62	11982.67
900.79	11728.72
900.96	11724.62
901.13	12062.54
901.30	11970.38
901.47	11855.69
901.64	11982.67
901.81	11956.04
901.98	11738.96
902.15	12029.77
902.32	11849.55
902.49	11913.03
902.66	11734.86
902.83	11673.42
903.01	11620.17
903.18	11898.70
903.35	11609.93
903.52	11900.75
903.69	11802.44
903.86	11882.31
904.03	11913.03
904.20	11958.09
904.37	12121.93
904.54	11835.21
904.71	11816.78
904.88	11732.81
905.05	11827.02
905.22	11872.07
905.39	11853.64
905.56	11634.51
905.73	11863.88
905.90	11781.96
906.07	11816.78
906.24	11695.95
906.41	11611.98
906.58	11773.77
906.75	11542.35
906.92	11609.93
907.09	11452.24
907.26	11784.01
907.43	11593.55
907.60	11622.22
907.77	11915.08
907.93	11622.22
908.10	11642.70
908.27	11683.66
908.44	11472.72
908.61	11568.98
908.78	11351.89
908.95	11722.57
909.12	11583.31
909.29	11544.40
909.46	11394.90
909.63	11575.12
909.80	11566.93
909.97	11212.63
910.14	11501.39
910.31	11462.48
910.48	11499.34
910.65	11337.56
910.82	11480.91
910.99	11386.71
911.16	11284.31
911.33	11341.65
911.50	11239.25
911.66	11407.19
911.83	11239.25
912.00	11409.23
912.17	11345.75
912.34	11327.32
912.51	11280.21
912.68	11063.13
912.85	11188.05
913.02	11186.01
913.19	11169.62
913.36	11138.90
913.53	11206.48
913.70	11079.51
913.86	11151.19
914.03	10860.38
914.20	11030.36
914.37	11071.32
914.54	10852.19
914.71	11038.55
914.88	10991.45
915.05	10757.98
915.22	10915.67
915.39	10882.91
915.55	10843.99
915.72	10784.60
915.89	10876.76
916.06	10659.68
916.23	10628.96
916.40	10678.11
916.57	10790.75
916.74	10563.42
916.91	10610.53
917.07	10585.95
917.24	10600.29
917.41	10542.94
917.58	10719.07
917.75	10413.92
917.92	10383.20
918.09	10499.94
918.26	10395.49
918.42	10547.04
918.59	10229.60
918.76	10295.14
918.93	10395.49
919.10	10280.80
919.27	10381.15
919.44	10354.53
919.60	10231.65
919.77	10456.93
919.94	10180.45
920.11	9899.88
920.28	10188.64
920.45	10278.76
920.61	9879.40
920.78	9957.22
920.95	9951.08
921.12	10092.39
921.29	9787.24
921.46	9879.40
921.62	9926.50
921.79	9650.03
921.96	9572.21
922.13	9830.25
922.30	9801.58
922.47	9658.22
922.63	9584.49
922.80	9471.86
922.97	9523.05
923.14	9383.79
923.31	9537.39
923.47	9412.46
923.64	9504.62
923.81	9490.29
923.98	9346.93
924.15	9308.02
924.32	9160.56
924.48	9369.46
924.65	9373.55
924.82	9371.50
924.99	8976.25
925.15	9133.94
925.32	9183.09
925.49	9047.93
925.66	8972.15
925.83	9035.64
925.99	8949.62
926.16	8949.62
926.33	8994.68
926.50	8810.36
926.67	8859.51
926.83	8828.79
927.00	8744.83
927.17	8785.79
927.34	8742.78
927.50	8720.25
927.67	8603.52
927.84	8470.40
928.01	8566.65
928.17	8640.38
928.34	8339.33
928.51	8523.65
928.68	8441.73
928.84	8363.90
929.01	8480.64
929.18	8243.07
929.35	8249.22
929.51	8304.51
929.68	8038.28
929.85	8130.44
930.02	8077.19
930.18	8220.55
930.35	8083.33
930.52	8069.00
930.69	8077.19
930.85	7993.22
931.02	7909.26
931.19	7839.62
931.36	7821.19
931.52	7835.53
931.69	7860.10
931.86	7776.14
932.02	7581.58
932.19	7679.88
932.36	7604.11
932.53	7733.13
932.69	7438.22
932.86	7745.42
933.03	7370.64
933.19	7499.66
933.36	7448.46
933.53	7491.47
933.70	7350.16
933.86	7497.61
934.03	7352.21
934.20	7307.15
934.36	7149.46
934.53	7137.17
934.70	7102.36
934.86	7057.30
935.03	7045.01
935.20	6930.33
935.36	6866.84
935.53	6829.98
935.70	6776.73
935.86	6913.94
936.03	6725.53
936.20	6616.99
936.36	6647.71
936.53	6522.78
936.70	6588.32
936.86	6535.07
937.03	6555.55
937.20	6291.36
937.36	6287.26
937.53	6356.90
937.70	6326.18
937.86	6141.86
938.03	6000.55
938.20	6066.08
938.36	6023.08
938.53	5867.43
938.70	5767.08
938.86	5638.06
939.03	5740.46
939.20	5707.69
939.36	5656.49
939.53	5541.80
939.70	5687.21
939.86	5410.73
940.03	5431.21
940.19	5183.41
940.36	5240.75
940.53	5164.98
940.69	5269.42
940.86	5197.74
941.03	5033.91
941.19	5109.68
941.36	5003.19
941.52	4943.80
941.69	4949.94
941.86	4868.02
942.02	4839.35
942.19	4792.25
942.35	4896.69
942.52	4693.94
942.69	4720.57
942.85	4593.59
943.02	4636.60
943.18	4589.50
943.35	4519.87
943.52	4655.03
943.68	4601.79
943.85	4429.76
944.01	4446.14
944.18	4435.90
944.35	4462.52
944.51	4427.71
944.68	4366.27
944.84	4306.88
945.01	4249.54
945.17	4364.22
945.34	4274.11
945.51	4452.28
945.67	4214.72
945.84	4353.98
946.00	4270.01
946.17	4249.54
946.33	4212.67
946.50	4327.36
946.67	4263.87
946.83	4231.10
947.00	4300.73
947.16	4116.42
947.33	4181.95
947.49	4349.89
947.66	4272.06
947.82	4188.10
947.99	4132.80
948.16	4325.31
948.32	4118.47
948.49	4188.10
948.65	4233.15
948.82	4216.77
948.98	4147.14
949.15	4057.03
949.31	4200.38
949.48	4206.53
949.64	4218.82
949.81	4229.06
949.97	4136.90
950.14	4157.38
950.30	4220.86
950.47	4204.48
950.63	4239.30
950.80	4192.19
950.96	4333.50
951.13	4206.53
951.30	4134.85
951.46	4237.25
951.63	4237.25
951.79	4241.34
951.96	4263.87
952.12	4257.73
952.29	4212.67
952.45	4212.67
952.62	4241.34
952.78	4220.86
952.94	4216.77
953.11	4290.49
953.27	4274.11
953.44	4284.35
953.60	4325.31
953.77	4177.86
953.93	4298.69
954.10	4319.17
954.26	4206.53
954.43	4331.45
954.59	4335.55
954.76	4317.12
954.92	4229.06
955.09	4204.48
955.25	4179.90
955.42	4304.83
955.58	4251.58
955.75	4265.92
955.91	4265.92
956.07	4353.98
956.24	4278.21
956.40	4329.41
956.57	4349.89
956.73	4231.10
956.90	4247.49
957.06	4253.63
957.23	4323.26
957.39	4194.24
957.56	4202.43
957.72	4255.68
957.88	4317.12
958.05	4315.07
958.21	4267.97
958.38	4335.55
958.54	4325.31
958.71	4368.32
958.87	4288.45
959.03	4263.87
959.20	4274.11
959.36	4224.96
959.53	4179.90
959.69	4161.47
959.85	4331.45
960.02	4274.11
960.18	4300.73
960.35	4282.30
960.51	4356.03
960.68	4308.93
960.84	4321.21
961.00	4388.80
961.17	4278.21
961.33	4339.65
961.50	4192.19
961.66	4321.21
961.82	4227.01
961.99	4331.45
962.15	4286.40
962.31	4126.66
962.48	4272.06
962.64	4263.87
962.81	4300.73
962.97	4175.81
963.13	4177.86
963.30	4175.81
963.46	4278.21
963.62	4261.82
963.79	4188.10
963.95	4261.82
964.12	4233.15
964.28	4233.15
964.44	4126.66
964.61	4222.91
964.77	4204.48
964.93	4227.01
965.10	4151.23
965.26	4253.63
965.42	4310.97
965.59	4247.49
965.75	4196.29
965.92	4171.71
966.08	4173.76
966.24	4116.42
966.41	4147.14
966.57	4132.80
966.73	4130.75
966.90	4296.64
967.06	4128.70
967.22	4054.98
967.39	4120.51
967.55	4040.64
967.71	4143.04
967.88	4065.22
968.04	4069.31
968.20	4016.07
968.37	4016.07
968.53	4091.84
968.69	4036.55
968.85	4100.03
969.02	4087.75
969.18	4083.65
969.34	3981.25
969.51	4026.31
969.67	4071.36
969.83	3985.35
970.00	4106.18
970.16	3917.76
970.32	3981.25
970.48	3964.87
970.65	4020.16
970.81	3962.82
970.97	4077.51
971.14	3874.76
971.30	3997.64
971.46	3874.76
971.63	3954.63
971.79	4040.64
971.95	3977.16
972.11	3815.37
972.28	3858.37
972.44	3901.38
972.60	3852.23
972.76	3893.19
972.93	3835.85
973.09	3891.14
973.25	3864.52
973.42	3729.35
973.58	3930.05
973.74	3813.32
973.90	3882.95
974.07	3790.79
974.23	3825.61
974.39	3805.13
974.55	3794.89
974.72	3706.82
974.88	3604.42
975.04	3778.50
975.20	3700.68
975.37	3782.60
975.53	3712.97
975.69	3803.08
975.85	3784.65
976.01	3667.91
976.18	3702.73
976.34	3702.73
976.50	3784.65
976.66	3813.32
976.83	3715.02
976.99	3715.02
977.15	3766.21
977.31	3608.52
977.47	3678.15
977.64	3674.06
977.80	3629.00
977.96	3688.39
978.12	3702.73
978.29	3585.99
978.45	3641.29
978.61	3434.44
978.77	3557.32
978.93	3661.77
979.10	3696.58
979.26	3524.55
979.42	3612.62
979.58	3502.03
979.74	3577.80
979.91	3608.52
980.07	3514.31
980.23	3440.59
980.39	3538.89
980.55	3553.23
980.71	3532.75
980.88	3477.45
981.04	3518.41
981.20	3430.35
981.36	3440.59
981.52	3506.12
981.68	3479.50
981.85	3573.71
982.01	3473.36
982.17	3381.20
982.33	3430.35
982.49	3375.05
982.65	3442.64
982.82	3434.44
982.98	3430.35
983.14	3418.06
983.30	3350.48
983.46	3465.16
983.62	3356.62
983.79	3334.09
983.95	3407.82
984.11	3338.19
984.27	3409.87
984.43	3334.09
984.59	3379.15
984.75	3469.26
984.91	3403.72
985.08	3352.52
985.24	3313.61
985.40	3246.03
985.56	3268.56
985.72	3241.93
985.88	3291.09
986.04	3319.76
986.20	3188.69
986.37	3237.84
986.53	3297.23
986.69	3319.76
986.85	3235.79
987.01	3211.22
987.17	3241.93
987.33	3237.84
987.49	3147.73
987.65	3274.70
987.82	3176.40
987.98	3190.74
988.14	3182.54
988.30	3147.73
988.46	3137.49
988.62	3121.10
988.78	3178.45
988.94	3043.28
989.10	3061.71
989.26	3082.19
989.42	3129.30
989.59	3002.32
989.75	3037.14
989.91	3092.43
990.07	2981.84
990.23	3092.43
990.39	2987.99
990.55	3018.71
990.71	2994.13
990.87	2977.75
991.03	2961.36
991.19	3106.77
991.35	3082.19
991.51	3088.34
991.67	3010.51
991.83	3030.99
992.00	3045.33
992.16	2967.51
992.32	3000.27
992.48	3002.32
992.64	2967.51
992.80	2990.03
992.96	2951.12
993.12	2955.22
993.28	2899.92
993.44	2918.36
993.60	2908.12
993.76	2971.60
993.92	2832.34
994.08	2912.21
994.24	3020.75
994.40	2938.84
994.56	2811.86
994.72	2791.38
994.88	2815.96
995.04	2877.40
995.20	2787.29
995.36	2740.18
995.52	2809.81
995.68	2877.40
995.84	2910.16
996.00	2824.15
996.16	2797.53
996.32	2772.95
996.48	2713.56
996.64	2885.59
996.80	2828.24
996.96	2881.49
997.12	2742.23
997.28	2863.06
997.44	2793.43
997.60	2748.37
997.76	2781.14
997.92	2775.00
998.08	2738.13
998.24	2672.60
998.40	2760.66
998.56	2635.74
998.72	2660.31
998.88	2731.99
999.04	2674.65
999.20	2664.41
999.36	2664.41
999.52	2736.09
999.68	2691.03
999.84	2668.50
1000.00	2731.99
1000.16	2740.18
1000.32	2619.35
1000.48	2781.14
1000.64	2633.69
1000.80	2551.77
1000.95	2605.02
1001.11	2693.08
1001.27	2605.02
1001.43	2643.93
1001.59	2496.47
1001.75	2572.25
1001.91	2512.86
1002.07	2605.02
1002.23	2506.71
1002.39	2516.95
1002.55	2629.59
1002.71	2549.72
1002.87	2570.20
1003.03	2535.39
1003.19	2490.33
1003.34	2564.06
1003.50	2492.38
1003.66	2648.02
1003.82	2523.10
1003.98	2510.81
1004.14	2500.57
1004.30	2490.33
1004.46	2451.42
1004.62	2473.95
1004.78	2410.46
1004.94	2531.29
1005.09	2447.32
1005.25	2492.38
1005.41	2514.91
1005.57	2510.81
1005.73	2414.56
1005.89	2418.65
1006.05	2492.38
1006.21	2480.09
1006.37	2414.56
1006.52	2447.32
1006.68	2441.18
1006.84	2420.70
1007.00	2383.84
1007.16	2478.04
1007.32	2420.70
1007.48	2410.46
1007.64	2353.12
1007.79	2310.11
1007.95	2418.65
1008.11	2447.32
1008.27	2422.75
1008.43	2412.51
1008.59	2351.07
1008.75	2332.64
1008.91	2418.65
1009.06	2314.20
1009.22	2285.53
1009.38	2299.87
1009.54	2310.11
1009.70	2295.77
1009.86	2326.49
1010.01	2357.21
1010.17	2271.20
1010.33	2303.96
1010.49	2363.36
1010.65	2263.01
1010.81	2359.26
1010.96	2265.05
1011.12	2291.68
1011.28	2279.39
1011.44	2322.40
1011.60	2267.10
1011.76	2189.28
1011.91	2336.73
1012.07	2265.05
1012.23	2256.86
1012.39	2191.33
1012.55	2230.24
1012.71	2279.39
1012.86	2187.23
1013.02	2260.96
1013.18	2265.05
1013.34	2232.29
1013.50	2263.01
1013.65	2326.49
1013.81	2144.22
1013.97	2119.65
1014.13	2142.18
1014.29	2213.85
1014.44	2160.61
1014.60	2207.71
1014.76	2242.53
1014.92	2111.46
1015.07	2199.52
1015.23	2107.36
1015.39	2191.33
1015.55	2170.85
1015.71	2162.66
1015.86	2156.51
1016.02	2103.26
1016.18	2121.70
1016.34	2144.22
1016.49	2099.17
1016.65	2088.93
1016.81	2095.07
1016.97	2148.32
1017.12	2121.70
1017.28	2070.50
1017.44	2056.16
1017.60	2121.70
1017.75	2164.70
1017.91	2052.06
1018.07	2123.74
1018.23	2076.64
1018.38	2043.87
1018.54	2043.87
1018.70	2070.50
1018.86	2086.88
1019.01	2037.73
1019.17	2025.44
1019.33	2101.22
1019.49	2052.06
1019.64	2043.87
1019.80	2154.46
1019.96	2084.83
1020.12	2029.54
1020.27	2041.82
1020.43	2066.40
1020.59	2029.54
1020.74	2129.89
1020.90	2097.12
1021.06	2031.58
1021.22	2015.20
1021.37	2004.96
1021.53	1986.53
1021.69	1984.48
1021.84	2021.35
1022.00	2019.30
1022.16	2052.06
1022.31	2041.82
1022.47	1974.24
1022.63	2058.21
1022.79	2025.44
1022.94	1947.62
1023.10	1951.71
1023.26	1998.82
1023.41	1992.67
1023.57	1953.76
1023.73	1964.00
1023.88	1927.14
1024.04	1900.52
1024.20	1904.61
1024.35	1925.09
1024.51	1916.90
1024.67	1986.53
1024.82	1941.47
1024.98	1916.90
1025.14	1994.72
1025.29	1902.56
1025.45	1961.95
1025.61	1861.60
1025.76	1900.52
1025.92	1988.58
1026.08	2021.35
1026.23	2019.30
1026.39	1970.15
1026.55	1894.37
1026.70	1892.32
1026.86	1898.47
1027.02	1871.84
1027.17	1837.03
1027.33	1929.19
1027.48	1882.08
1027.64	1834.98
1027.80	1880.04
1027.95	1941.47
1028.11	1894.37
1028.27	1908.71
1028.42	1896.42
1028.58	1832.93
1028.73	1779.68
1028.89	1748.97
1029.05	1964.00
1029.20	1941.47
>>>>>End Processed Spectral Data<<<<<
