SpectraSuite Data File
++++++++++++++++++++++++++++++++++++
Date: Tue Jun 13 11:53:15 CEST 2017
User: INFO_000
Dark Spectrum Present: No
Reference Spectrum Present: No
Number of Sampled Component Spectra: 1
Spectrometers: USB4H00879
Integration Time (usec): 30000 (USB4H00879)
Spectra Averaged: 1 (USB4H00879)
Boxcar Smoothing: 0 (USB4H00879)
Correct for Electrical Dark: No (USB4H00879)
Strobe/Lamp Enabled: No (USB4H00879)
Correct for Detector Non-linearity: No (USB4H00879)
Correct for Stray Light: No (USB4H00879)
Number of Pixels in Processed Spectrum: 3648
>>>>>Begin Processed Spectral Data<<<<<
345.13	1322.99
345.34	1322.99
345.56	1322.99
345.78	1419.24
345.99	1304.56
346.21	1566.70
346.42	1474.54
346.64	1480.68
346.86	1603.56
347.07	1476.59
347.29	1509.35
347.50	1452.01
347.72	1538.02
347.94	1447.91
348.15	1486.83
348.37	1462.25
348.59	1492.97
348.80	1484.78
349.02	1535.98
349.23	1601.51
349.45	1626.09
349.67	1597.42
349.88	1607.66
350.10	1703.91
350.31	1640.42
350.53	1529.83
350.75	1716.20
350.96	1621.99
351.18	1605.61
351.39	1617.90
351.61	1617.90
351.82	1626.09
352.04	1667.05
352.26	1636.33
352.47	1621.99
352.69	1652.71
352.90	1517.54
353.12	1585.13
353.34	1527.78
353.55	1630.18
353.77	1578.98
353.98	1654.76
354.20	1619.94
354.41	1681.38
354.63	1581.03
354.85	1689.57
355.06	1652.71
355.28	1617.90
355.49	1673.19
355.71	1599.46
355.92	1638.38
356.14	1632.23
356.35	1583.08
356.57	1648.61
356.79	1621.99
357.00	1615.85
357.22	1738.73
357.43	1591.27
357.65	1658.85
357.86	1589.22
358.08	1648.61
358.29	1673.19
358.51	1667.05
358.72	1683.43
358.94	1681.38
359.16	1658.85
359.37	1628.14
359.59	1693.67
359.80	1759.21
360.02	1642.47
360.23	1701.86
360.45	1632.23
360.66	1701.86
360.88	1650.66
361.09	1609.70
361.31	1660.90
361.52	1693.67
361.74	1753.06
361.95	1820.64
362.17	1665.00
362.38	1748.97
362.60	1728.49
362.81	1738.73
363.03	1665.00
363.24	1779.68
363.46	1695.72
363.67	1701.86
363.89	1695.72
364.10	1783.78
364.32	1673.19
364.53	1832.93
364.75	1650.66
364.96	1673.19
365.18	1777.64
365.39	1761.25
365.61	1710.05
365.82	1714.15
366.04	1708.01
366.25	1746.92
366.47	1847.27
366.68	1806.31
366.90	1705.96
367.11	1857.51
367.33	1746.92
367.54	1763.30
367.76	1734.63
367.97	1771.49
368.19	1804.26
368.40	1791.97
368.62	1736.68
368.83	1726.44
369.05	1804.26
369.26	1730.53
369.48	1714.15
369.69	1732.58
369.91	1753.06
370.12	1734.63
370.33	1882.08
370.55	1714.15
370.76	1765.35
370.98	1841.12
371.19	1755.11
371.41	1845.22
371.62	1808.36
371.84	1693.67
372.05	1830.88
372.27	1802.21
372.48	1783.78
372.69	1859.56
372.91	1853.41
373.12	1847.27
373.34	1816.55
373.55	1832.93
373.77	1804.26
373.98	1802.21
374.20	1886.18
374.41	1808.36
374.62	1839.08
374.84	1837.03
375.05	1880.04
375.27	1837.03
375.48	1953.76
375.70	1914.85
375.91	1953.76
376.12	1984.48
376.34	1896.42
376.55	1882.08
376.77	1988.58
376.98	1908.71
377.19	1851.36
377.41	1849.32
377.62	1955.81
377.84	1927.14
378.05	1953.76
378.27	1818.60
378.48	1851.36
378.69	1955.81
378.91	1961.95
379.12	2033.63
379.34	1871.84
379.55	1988.58
379.76	1914.85
379.98	1980.39
380.19	1867.75
380.41	1953.76
380.62	1947.62
380.83	1894.37
381.05	1925.09
381.26	2052.06
381.47	1957.86
381.69	2021.35
381.90	2027.49
382.12	2045.92
382.33	2021.35
382.54	2056.16
382.76	1964.00
382.97	2060.26
383.19	2150.37
383.40	2019.30
383.61	2035.68
383.83	2054.11
384.04	2050.02
384.25	1994.72
384.47	2084.83
384.68	2029.54
384.89	2095.07
385.11	2004.96
385.32	2078.69
385.54	2066.40
385.75	2111.46
385.96	2090.98
386.18	2097.12
386.39	2152.42
386.60	2074.59
386.82	2226.14
387.03	2105.31
387.24	2127.84
387.46	2164.70
387.67	2140.13
387.88	2236.38
388.10	2127.84
388.31	2209.76
388.52	2258.91
388.74	2187.23
388.95	2277.34
389.16	2205.66
389.38	2099.17
389.59	2265.05
389.80	2273.25
390.02	2203.61
390.23	2271.20
390.44	2166.75
390.66	2260.96
390.87	2172.89
391.08	2287.58
391.30	2338.78
391.51	2271.20
391.72	2316.25
391.94	2318.30
392.15	2295.77
392.36	2312.16
392.58	2359.26
392.79	2340.83
393.00	2408.41
393.22	2351.07
393.43	2346.97
393.64	2375.64
393.85	2519.00
394.07	2332.64
394.28	2408.41
394.49	2475.99
394.71	2365.40
394.92	2455.51
395.13	2441.18
395.35	2406.36
395.56	2416.60
395.77	2473.95
395.98	2498.52
396.20	2471.90
396.41	2480.09
396.62	2537.43
396.84	2482.14
397.05	2596.82
397.26	2609.11
397.47	2566.10
397.69	2488.28
397.90	2590.68
398.11	2480.09
398.32	2611.16
398.54	2533.34
398.75	2539.48
398.96	2572.25
399.18	2668.50
399.39	2688.98
399.60	2742.23
399.81	2607.06
400.03	2605.02
400.24	2779.09
400.45	2600.92
400.66	2744.28
400.88	2717.65
401.09	2807.77
401.30	2777.05
401.51	2875.35
401.73	2707.41
401.94	2731.99
402.15	2695.13
402.36	2643.93
402.58	2791.38
402.79	2807.77
403.00	2873.30
403.21	2793.43
403.43	2826.20
403.64	2926.55
403.85	2768.85
404.06	2881.49
404.27	2775.00
404.49	2815.96
404.70	2897.88
404.91	2897.88
405.12	2926.55
405.34	2852.82
405.55	2977.75
405.76	2944.98
405.97	2901.97
406.19	2877.40
406.40	2912.21
406.61	2906.07
406.82	2920.40
407.03	2899.92
407.25	3012.56
407.46	3114.96
407.67	3149.78
407.88	3000.27
408.09	2969.55
408.31	3026.90
408.52	3059.67
408.73	3047.38
408.94	2975.70
409.15	3080.14
409.37	3080.14
409.58	3117.01
409.79	3035.09
410.00	3180.50
410.21	3078.10
410.43	3194.83
410.64	3088.34
410.85	3108.82
411.06	3203.02
411.27	3168.21
411.48	3186.64
411.70	3162.06
411.91	3225.55
412.12	3160.02
412.33	3061.71
412.54	3377.10
412.76	3401.68
412.97	3160.02
413.18	3166.16
413.39	3254.22
413.60	3321.81
413.81	3409.87
414.03	3297.23
414.24	3194.83
414.45	3387.34
414.66	3215.31
414.87	3332.05
415.08	3305.42
415.30	3370.96
415.51	3252.17
415.72	3309.52
415.93	3291.09
416.14	3489.74
416.35	3452.88
416.56	3383.24
416.78	3413.96
416.99	3559.37
417.20	3362.76
417.41	3456.97
417.62	3528.65
417.83	3540.94
418.04	3579.85
418.26	3518.41
418.47	3395.53
418.68	3577.80
418.89	3581.90
419.10	3663.82
419.31	3592.14
419.52	3792.84
419.73	3762.12
419.95	3678.15
420.16	3604.42
420.37	3569.61
420.58	3647.43
420.79	3610.57
421.00	3760.07
421.21	3831.75
421.42	3659.72
421.63	3751.88
421.85	3772.36
422.06	3887.04
422.27	3794.89
422.48	3846.09
422.69	3792.84
422.90	3798.98
423.11	3809.22
423.32	3870.66
423.53	3860.42
423.75	3848.13
423.96	4085.70
424.17	3934.15
424.38	4083.65
424.59	4005.83
424.80	4227.01
425.01	3987.40
425.22	4014.02
425.43	4067.27
425.64	4157.38
425.85	4274.11
426.06	4087.75
426.28	4143.04
426.49	4153.28
426.70	4036.55
426.91	4143.04
427.12	4235.20
427.33	4220.86
427.54	4317.12
427.75	4243.39
427.96	4372.41
428.17	4194.24
428.38	4353.98
428.59	4454.33
428.80	4130.75
429.01	4239.30
429.23	4497.34
429.44	4603.83
429.65	4476.86
429.86	4458.43
430.07	4341.69
430.28	4429.76
430.49	4618.17
430.70	4538.30
430.91	4595.64
431.12	4495.29
431.33	4734.90
431.54	4698.04
431.75	4712.38
431.96	4704.18
432.17	4659.13
432.38	4677.56
432.59	4872.12
432.80	4800.44
433.01	4585.40
433.22	4769.72
433.43	4741.05
433.64	4847.54
433.85	4759.48
434.06	5060.53
434.27	4855.73
434.49	5007.28
434.70	5050.29
434.91	5027.76
435.12	4929.46
435.33	4925.36
435.54	4978.61
435.75	4921.27
435.96	5044.15
436.17	4960.18
436.38	5277.62
436.59	5097.39
436.80	5154.74
437.01	5228.46
437.22	5111.73
437.43	5099.44
437.64	5130.16
437.85	5269.42
438.06	5343.15
438.27	5195.70
438.48	5246.90
438.69	5400.49
438.90	5433.26
439.11	5330.86
439.32	5351.34
439.53	5490.60
439.74	5476.27
439.95	5314.48
440.16	5461.93
440.37	5519.28
440.57	5384.11
440.78	5552.04
440.99	5443.50
441.20	5496.75
441.41	5435.31
441.62	5482.41
441.83	5441.45
442.04	5791.66
442.25	5541.80
442.46	5699.50
442.67	5717.93
442.88	5928.87
443.09	5515.18
443.30	5595.05
443.51	5756.84
443.72	5832.62
443.93	5769.13
444.14	5957.54
444.35	5662.63
444.56	5877.67
444.77	5771.18
444.98	5910.44
445.19	5861.29
445.40	5799.85
445.61	5748.65
445.81	6008.74
446.02	5947.30
446.23	6029.22
446.44	5871.53
446.65	5994.40
446.86	6080.42
447.07	6076.32
447.28	6205.35
447.49	6154.15
447.70	6070.18
447.91	6236.06
448.12	6059.94
448.33	6191.01
448.54	6125.47
448.74	6139.81
448.95	6342.56
449.16	6141.86
449.37	6447.01
449.58	6320.03
449.79	6455.20
450.00	6363.04
450.21	6555.55
450.42	6487.96
450.63	6623.13
450.84	6424.48
451.05	6518.68
451.25	6500.25
451.46	6533.02
451.67	6635.42
451.88	6670.23
452.09	6676.38
452.30	6420.38
452.51	6743.96
452.72	6684.57
452.93	6946.71
453.13	6703.00
453.34	6707.10
453.55	6684.57
453.76	6860.70
453.97	7235.47
454.18	6981.53
454.39	6963.09
454.60	6885.27
454.81	6817.69
455.01	7106.45
455.22	6938.52
455.43	7102.36
455.64	7253.91
455.85	7157.65
456.06	7272.34
456.27	7174.03
456.48	7255.95
456.68	7421.84
456.89	7292.82
457.10	7518.09
457.31	7186.32
457.52	7296.91
457.73	7409.55
457.94	7600.01
458.14	7503.76
458.35	7698.31
458.56	7616.40
458.77	7632.78
458.98	7567.24
459.19	7651.21
459.39	7747.47
459.60	7985.03
459.81	7669.64
460.02	7901.06
460.23	7800.71
460.44	7993.22
460.65	8083.33
460.85	8257.41
461.06	8365.95
461.27	7851.91
461.48	8546.17
461.69	8372.10
461.89	8255.36
462.10	8368.00
462.31	8236.93
462.52	8337.28
462.73	8167.30
462.94	8503.17
463.14	8476.54
463.35	8302.47
463.56	8726.39
463.77	8669.05
463.98	8636.28
464.18	8562.56
464.39	8736.63
464.60	8910.71
464.81	8832.89
465.02	8687.48
465.23	9111.41
465.43	8877.94
465.64	9111.41
465.85	9086.84
466.06	9000.82
466.27	9242.48
466.47	9338.74
466.68	9242.48
466.89	9396.08
467.10	9564.01
467.30	9043.83
467.51	9602.93
467.72	9613.17
467.93	9424.75
468.14	9695.08
468.34	9766.76
468.55	9897.83
468.76	9738.09
468.97	9535.34
469.17	9969.51
469.38	9889.64
469.59	10012.52
469.80	9850.73
470.01	9914.22
470.21	10172.26
470.42	10205.03
470.63	10393.44
470.84	10188.64
471.04	10276.71
471.25	10471.26
471.46	10184.55
471.67	10637.15
471.87	10563.42
472.08	10719.07
472.29	10944.34
472.50	10499.94
472.70	10880.86
472.91	10854.23
473.12	11116.37
473.33	11349.84
473.53	11143.00
473.74	10940.25
473.95	11396.95
474.16	11450.19
474.36	11261.78
474.57	11487.06
474.78	11730.76
474.99	11456.34
475.19	11413.33
475.40	11759.44
475.61	11908.94
475.81	11931.47
476.02	12242.76
476.23	12232.52
476.44	12250.95
476.64	12250.95
476.85	12517.18
477.06	12240.71
477.27	12445.51
477.47	12619.58
477.68	12584.77
477.89	13002.55
478.09	12851.00
478.30	12879.68
478.51	13150.01
478.71	13160.25
478.92	13145.91
479.13	13168.44
479.34	13418.29
479.54	13346.61
479.75	13190.97
479.96	13479.73
480.16	13659.95
480.37	13553.46
480.58	13727.53
480.78	14137.13
480.99	14040.87
481.20	14217.00
481.41	14081.83
481.61	14303.01
481.82	14374.69
482.03	14165.80
482.23	14325.54
482.44	14661.41
482.65	14507.81
482.85	14733.09
483.06	14845.73
483.27	15015.71
483.47	14903.07
483.68	15064.86
483.89	15193.88
484.09	14978.84
484.30	15281.94
484.51	15433.49
484.71	15558.42
484.92	15327.00
485.13	15720.21
485.33	15365.91
485.54	15445.78
485.75	15992.59
485.95	15806.22
486.16	15910.67
486.37	16140.04
486.57	16107.27
486.78	16117.51
486.98	15910.67
487.19	16338.69
487.40	16258.82
487.60	16461.57
487.81	16676.61
488.02	16684.80
488.22	16715.52
488.43	16930.56
488.64	16920.32
488.84	16971.52
489.05	17004.28
489.25	17059.58
489.46	17319.67
489.67	17245.94
489.87	17137.40
490.08	17229.56
490.29	17551.09
490.49	17655.54
490.70	17893.10
490.90	17858.29
491.11	17614.58
491.32	17954.54
491.52	18259.69
491.73	18030.32
491.94	18134.76
492.14	18208.49
492.35	18091.76
492.55	18179.82
492.76	18366.18
492.97	18763.49
493.17	18640.61
493.38	18878.18
493.58	18622.18
493.79	18937.57
494.00	18788.07
494.20	18759.39
494.41	18933.47
494.61	19209.95
494.82	19255.00
495.02	19101.40
495.23	19203.80
495.44	19341.02
495.64	19455.70
495.85	19373.78
496.05	19969.74
496.26	19654.36
496.47	20053.71
496.67	19730.13
496.88	19810.00
497.08	19787.47
497.29	20109.01
497.49	20070.09
497.70	20197.07
497.91	20291.27
498.11	20289.23
498.32	20342.47
498.52	20418.25
498.73	20827.84
498.93	20596.42
499.14	20707.01
499.34	20661.96
499.55	20852.42
499.76	20582.09
499.96	20629.19
500.17	20733.64
500.37	20913.86
500.58	20928.19
500.78	20858.56
500.99	21032.64
501.19	21124.80
501.40	21505.72
501.60	21294.78
501.81	21229.24
502.02	21601.97
502.22	20983.49
502.43	21567.16
502.63	21618.36
502.84	21583.54
503.04	21782.20
503.25	21708.47
503.45	21565.11
503.66	22021.81
503.86	21837.49
504.07	22171.31
504.27	22169.26
504.48	22283.95
504.68	21933.75
504.89	22380.20
505.09	22224.56
505.30	22318.76
505.50	22025.90
505.71	22376.11
505.91	22410.92
506.12	22841.00
506.32	22498.98
506.53	22697.64
506.73	22570.66
506.94	22761.12
507.14	22775.46
507.35	22812.32
507.55	22587.05
507.76	22847.14
507.96	22496.94
508.17	22900.39
508.37	22777.51
508.58	23074.46
508.78	23090.85
508.99	23045.79
509.19	23326.36
509.40	23336.60
509.60	23359.13
509.81	23088.80
510.01	23029.41
510.22	23496.35
510.42	23494.30
510.63	23484.06
510.83	23496.35
511.04	23529.11
511.24	23416.47
511.44	23568.02
511.65	23697.05
511.85	23498.39
512.06	23783.06
512.26	23783.06
512.47	23873.17
512.67	24176.27
512.88	23864.98
513.08	23621.27
513.29	23899.80
513.49	23963.28
513.69	24028.82
513.90	24366.73
514.10	23996.05
514.31	24395.40
514.51	24043.15
514.72	23932.56
514.92	24260.24
515.13	24372.88
515.33	24323.72
515.53	24422.03
515.74	24129.17
515.94	24481.42
516.15	24544.91
516.35	24671.88
516.56	24700.55
516.76	24534.67
516.96	24628.87
517.17	24682.12
517.37	24755.85
517.58	24807.05
517.78	24948.36
517.99	24841.86
518.19	24954.50
518.39	25220.74
518.60	25390.72
518.80	25163.39
519.01	25415.29
519.21	25075.33
519.41	25415.29
519.62	25153.15
519.82	25351.81
520.03	25532.03
520.23	25536.12
520.43	25194.11
520.64	25513.59
520.84	25886.32
521.05	25683.58
521.25	25710.20
521.45	25476.73
521.66	25945.72
521.86	25665.14
522.07	25712.25
522.27	25796.21
522.47	26017.40
522.68	25951.86
522.88	26001.01
523.08	26312.30
523.29	26156.66
523.49	26312.30
523.70	26465.90
523.90	26478.19
524.10	26404.46
524.31	26760.81
524.51	26250.86
524.71	26947.17
524.92	26844.77
525.12	26695.27
525.33	26664.55
525.53	26945.12
525.73	27188.83
525.94	26959.46
526.14	26953.32
526.34	27182.69
526.55	27389.53
526.75	27047.52
526.95	27469.40
527.16	27051.62
527.36	27401.82
527.56	27522.65
527.77	27674.20
527.97	27553.37
528.17	27367.01
528.38	27580.00
528.58	27584.09
528.78	27659.87
528.99	27840.09
529.19	27995.73
529.39	27760.22
529.60	28014.16
529.80	27852.38
530.00	28059.22
530.21	28460.62
530.41	28288.59
530.61	28493.39
530.82	28255.82
531.02	28327.50
531.22	28677.71
531.43	28380.75
531.63	28929.61
531.83	28763.72
532.04	28939.85
532.24	28632.65
532.44	29130.31
532.64	29034.05
532.85	29541.95
533.05	29023.81
533.25	29347.39
533.46	29134.40
533.66	29623.87
533.86	29378.11
534.07	29484.61
534.27	29511.23
534.47	29445.69
534.67	29587.00
534.88	29439.55
535.08	29795.90
535.28	29799.99
535.49	29795.90
535.69	29982.26
535.89	30107.19
536.09	29931.06
536.30	30240.31
536.50	30035.51
536.70	30541.36
536.91	30242.35
537.11	29869.62
537.31	30389.81
537.51	30023.22
537.72	30418.48
537.92	30457.39
538.12	30828.07
538.32	30772.78
538.53	30897.70
538.73	30756.39
538.93	30596.65
539.13	30768.68
539.34	30766.63
539.54	30793.26
539.74	31370.79
539.94	30744.11
540.15	30842.41
540.35	31211.04
540.55	31090.21
540.75	31342.11
540.96	31358.50
541.16	31266.34
541.36	31446.56
541.56	31514.14
541.77	31546.91
541.97	31608.35
542.17	31870.49
542.37	31677.98
542.58	31620.64
542.78	31673.88
542.98	31641.12
543.18	31651.36
543.38	31833.63
543.59	32218.64
543.79	31598.11
543.99	32013.85
544.19	31954.46
544.40	32019.99
544.60	32271.89
544.80	32261.65
545.00	32056.85
545.20	32075.29
545.41	32073.24
545.61	32060.95
545.81	32577.04
546.01	32527.89
546.21	32429.59
546.42	32388.63
546.62	32536.08
546.82	32253.46
547.02	32755.21
547.22	32628.24
547.43	32595.47
547.63	32693.77
547.83	32679.44
548.03	32626.19
548.23	32863.75
548.44	32595.47
548.64	32921.10
548.84	32697.87
549.04	32826.89
549.24	32951.82
549.45	32917.00
549.65	32568.85
549.85	32443.92
550.05	33074.70
550.25	32718.35
550.45	33390.08
550.66	32943.63
550.86	32964.10
551.06	33455.62
551.26	32996.87
551.46	33150.47
551.66	33134.09
551.87	33177.09
552.07	33136.13
552.27	33334.79
552.47	33400.32
552.67	33355.27
552.87	33136.13
553.07	33324.55
553.28	33234.44
553.48	33586.69
553.68	33508.86
553.88	33912.31
554.08	33613.31
554.28	33367.55
554.48	33203.72
554.69	33777.15
554.89	33709.57
555.09	33568.26
555.29	33676.80
555.49	34012.66
555.69	33906.17
555.89	33621.50
556.10	34280.95
556.30	33566.21
556.50	33693.18
556.70	33895.93
556.90	34065.91
557.10	33938.94
557.30	33574.40
557.50	33920.51
557.70	34045.43
557.91	34108.92
558.11	34012.66
558.31	33791.48
558.51	33715.71
558.71	33740.29
558.91	33949.18
559.11	34033.14
559.31	33871.36
559.51	33779.20
559.72	33940.99
559.92	34102.78
560.12	33617.41
560.32	34049.53
560.52	33684.99
560.72	34061.82
560.92	34491.89
561.12	34086.39
561.32	34838.00
561.52	33998.33
561.72	34536.94
561.93	34078.20
562.13	34076.15
562.33	34035.19
562.53	34725.36
562.73	33920.51
562.93	34061.82
563.13	34481.65
563.33	34258.42
563.53	34117.11
563.73	34043.38
563.93	34043.38
564.13	34422.26
564.33	34149.88
564.53	34321.91
564.74	34682.35
564.94	34135.54
565.14	34356.72
565.34	34086.39
565.54	34420.21
565.74	34670.06
565.94	34690.54
566.14	34414.07
566.34	33975.80
566.54	35114.47
566.74	34237.94
566.94	34457.07
567.14	34479.60
567.34	34160.12
567.54	34235.89
567.74	34608.62
567.94	33902.07
568.14	34414.07
568.34	34760.17
568.54	34328.05
568.74	34655.73
568.94	34475.51
569.14	34727.41
569.34	34588.14
569.54	34639.34
569.75	34610.67
569.95	34659.82
570.15	34811.37
570.35	34811.37
570.55	34915.82
570.75	34473.46
570.95	34696.69
571.15	34811.37
571.35	34784.75
571.55	34938.35
571.75	34637.30
571.95	34960.87
572.15	34520.56
572.35	34881.00
572.55	34530.80
572.75	34856.43
572.95	34921.96
573.15	34934.25
573.35	34969.07
573.55	34858.48
573.75	34971.11
573.95	35065.32
574.15	35059.18
574.35	35143.14
574.55	34909.68
574.75	34960.87
574.95	35055.08
575.15	34952.68
575.34	34946.54
575.54	35311.08
575.74	35251.69
575.94	35456.48
576.14	35192.30
576.34	35376.61
576.54	35390.95
576.74	35118.57
576.94	35032.55
577.14	35161.58
577.34	35292.65
577.54	35157.48
577.74	35044.84
577.94	35292.65
578.14	35345.89
578.34	35372.52
578.54	34776.56
578.74	35247.59
578.94	35405.28
579.14	35231.21
579.34	35304.93
579.54	35534.31
579.74	35419.62
579.94	35509.73
580.13	35716.58
580.33	35546.59
580.53	35501.54
580.73	35882.46
580.93	35481.06
581.13	35526.11
581.33	36050.39
581.53	35720.67
581.73	35724.77
581.93	35755.49
582.13	35575.27
582.33	35775.97
582.53	36099.55
582.73	35712.48
582.92	35763.68
583.12	36226.52
583.32	35737.05
583.52	35925.47
583.72	35876.32
583.92	36031.96
584.12	35849.69
584.32	36296.15
584.52	36120.02
584.72	36150.74
584.92	36318.68
585.11	36402.64
585.31	35939.80
585.51	36259.29
585.71	36021.72
585.91	36249.05
586.11	35718.62
586.31	36175.32
586.51	36107.74
586.71	36273.62
586.91	36361.69
587.10	36234.71
587.30	36376.02
587.50	36345.30
587.70	36310.49
587.90	36447.70
588.10	35927.52
588.30	35991.00
588.50	36351.45
588.69	36290.01
588.89	36140.50
589.09	36328.92
589.29	36568.53
589.49	36877.77
589.69	36341.21
589.89	36533.71
590.08	36713.94
590.28	36285.91
590.48	36443.60
590.68	36249.05
590.88	36599.25
591.08	36562.39
591.28	36345.30
591.47	36779.47
591.67	36842.96
591.87	36601.30
592.07	36613.59
592.27	36785.61
592.47	37047.75
592.67	36779.47
592.86	36623.83
593.06	36449.75
593.26	36879.82
593.46	36654.54
593.66	36507.09
593.86	36959.69
594.05	36746.70
594.25	36859.34
594.45	36486.61
594.65	36840.91
594.85	36572.63
595.05	36730.32
595.24	36648.40
595.44	36652.50
595.64	37012.94
595.84	36699.60
596.04	36871.63
596.23	37223.88
596.43	36773.33
596.63	36480.47
596.83	36679.12
597.03	36822.48
597.22	37240.26
597.42	36947.40
597.62	37326.28
597.82	36931.02
598.02	37021.13
598.21	37572.03
598.41	36648.40
598.61	37225.93
598.81	36963.79
599.01	37279.18
599.20	37318.09
599.40	36996.56
599.60	37303.75
599.80	37096.91
600.00	37320.13
600.19	37508.55
600.39	37006.80
600.59	37508.55
600.79	37641.67
600.98	37492.16
601.18	37178.82
601.38	37447.11
601.58	37488.07
601.78	37674.43
601.97	37383.62
602.17	37475.78
602.37	37506.50
602.57	37184.97
602.76	37897.66
602.96	37297.61
603.16	37866.94
603.36	37742.02
603.55	37995.96
603.75	37725.63
603.95	37916.09
604.15	37838.27
604.34	37692.86
604.54	37584.32
604.74	37414.34
604.94	37715.39
605.13	37643.71
605.33	37494.21
605.53	37393.86
605.73	37885.37
605.92	38233.53
606.12	37889.47
606.32	38022.59
606.52	37946.81
606.71	37696.96
606.91	38190.52
607.11	37780.93
607.30	37725.63
607.50	37940.67
607.70	37774.78
607.90	37778.88
608.09	37983.68
608.29	38022.59
608.49	37815.74
608.68	38041.02
608.88	38161.85
609.08	38002.11
609.28	37979.58
609.47	38038.97
609.67	38243.77
609.87	37993.92
610.06	37651.91
610.26	37778.88
610.46	38024.64
610.66	37825.98
610.85	38313.40
611.05	37782.98
611.25	37840.32
611.44	37946.81
611.64	38094.27
611.84	38049.21
612.03	37918.14
612.23	38378.93
612.43	38020.54
612.62	37799.36
612.82	38008.25
613.02	38184.38
613.21	38032.83
613.41	37731.78
613.61	37969.34
613.80	37807.55
614.00	37912.00
614.20	37791.17
614.39	37912.00
614.59	37606.85
614.79	37905.85
614.98	37774.78
615.18	38024.64
615.38	37967.29
615.57	37885.37
615.77	37944.76
615.97	37981.63
616.16	37756.35
616.36	37723.58
616.56	37995.96
616.75	37451.20
616.95	37811.65
617.15	37596.61
617.34	37694.91
617.54	37856.70
617.74	37635.52
617.93	37768.64
618.13	37600.71
618.32	37393.86
618.52	37397.96
618.72	37903.81
618.91	37883.33
619.11	37234.12
619.31	37615.04
619.50	37547.46
619.70	37584.32
619.90	37576.13
620.09	37371.33
620.29	37344.71
620.48	37240.26
620.68	38022.59
620.88	37340.61
621.07	37148.11
621.27	37402.05
621.46	36939.21
621.66	37094.86
621.86	37139.91
622.05	37262.79
622.25	37209.54
622.44	37490.12
622.64	36888.01
622.84	37307.85
623.03	37320.13
623.23	37197.26
623.42	37256.65
623.62	37225.93
623.82	37420.48
624.01	37096.91
624.21	37297.61
624.40	37199.30
624.60	37242.31
624.80	37336.52
624.99	37107.15
625.19	36871.63
625.38	37141.96
625.58	37123.53
625.77	36728.27
625.97	36691.41
626.17	36584.91
626.36	36642.26
626.56	37033.42
626.75	36765.14
626.95	36849.10
627.14	36416.98
627.34	36949.45
627.54	36537.81
627.73	36816.33
627.93	36873.68
628.12	36685.26
628.32	36525.52
628.51	36779.47
628.71	36881.87
628.90	36414.93
629.10	37008.84
629.30	36748.75
629.49	36982.22
629.69	36914.64
629.88	36892.11
630.08	36992.46
630.27	36871.63
630.47	36838.86
630.66	36705.74
630.86	36756.94
631.05	36537.81
631.25	37152.20
631.44	36593.11
631.64	36589.01
631.84	36906.44
632.03	36859.34
632.23	36525.52
632.42	36797.90
632.62	36785.61
632.81	36304.34
633.01	36386.26
633.20	36572.63
633.40	36167.13
633.59	36341.21
633.79	36541.91
633.98	36486.61
634.18	36482.52
634.37	36578.77
634.57	36191.70
634.76	36398.55
634.96	36519.38
635.15	36132.31
635.35	35970.52
635.54	35913.18
635.74	36459.99
635.93	35950.04
636.13	36459.99
636.32	36713.94
636.52	36165.08
636.71	36384.21
636.91	36232.66
637.10	36290.01
637.30	36408.79
637.49	36040.15
637.69	36253.14
637.88	36326.87
638.08	36169.18
638.27	36148.70
638.46	36191.70
638.66	36238.81
638.85	36300.25
639.05	36353.49
639.24	36134.36
639.44	36083.16
639.63	36195.80
639.83	36230.62
640.02	35984.86
640.22	36120.02
640.41	35999.19
640.61	35845.60
640.80	36120.02
640.99	35991.00
641.19	36320.73
641.38	35847.64
641.58	36019.67
641.77	35935.71
641.97	35614.18
642.16	36156.89
642.36	36193.75
642.55	36517.33
642.74	36081.11
642.94	36216.28
643.13	35909.08
643.33	35669.47
643.52	35683.81
643.72	36312.53
643.91	35952.09
644.10	36009.43
644.30	35898.84
644.49	35892.70
644.69	36115.93
644.88	36156.89
645.08	35657.18
645.27	35765.73
645.46	36005.34
645.66	36062.68
645.85	35679.71
646.05	36126.17
646.24	35857.88
646.43	35726.81
646.63	35925.47
646.82	36052.44
647.02	35524.07
647.21	35997.15
647.40	35724.77
647.60	36054.49
647.79	35943.90
647.99	36140.50
648.18	36040.15
648.37	36292.05
648.57	35845.60
648.76	35950.04
648.96	35761.63
649.15	36152.79
649.34	35788.25
649.54	35847.64
649.73	35673.57
649.92	35679.71
650.12	35694.05
650.31	35702.24
650.51	36103.64
650.70	35984.86
650.89	35999.19
651.09	36257.24
651.28	35653.09
651.47	36148.70
651.67	36341.21
651.86	36146.65
652.06	35309.03
652.25	35657.18
652.44	35765.73
652.64	35427.81
652.83	35800.54
653.02	35231.21
653.22	35847.64
653.41	35642.85
653.60	35239.40
653.80	35751.39
653.99	35763.68
654.18	35370.47
654.38	35608.03
654.57	35433.96
654.76	35831.26
654.96	35442.15
655.15	35476.96
655.34	35792.35
655.54	35575.27
655.73	35436.00
655.92	35620.32
656.12	35730.91
656.31	35726.81
656.50	35241.45
656.70	35415.52
656.89	35534.31
657.08	35317.22
657.28	35327.46
657.47	35421.67
657.66	35597.79
657.86	35096.04
658.05	35487.20
658.24	35085.80
658.43	35122.66
658.63	35362.28
658.82	35446.24
659.01	35272.17
659.21	35558.88
659.40	35096.04
659.59	35194.34
659.79	35423.72
659.98	35442.15
660.17	35651.04
660.36	35468.77
660.56	35300.84
660.75	35171.82
660.94	35085.80
661.14	35288.55
661.33	35122.66
661.52	34844.14
661.71	35341.80
661.91	34993.64
662.10	34915.82
662.29	35472.87
662.49	35053.03
662.68	35243.49
662.87	35298.79
663.06	35075.56
663.26	35130.86
663.45	35186.15
663.64	35257.83
663.83	35446.24
664.03	35493.35
664.22	35081.70
664.41	35323.36
664.60	34780.65
664.80	35143.14
664.99	34756.08
665.18	34956.78
665.37	35048.94
665.57	35235.30
665.76	34921.96
665.95	35071.46
666.14	34942.44
666.34	34842.09
666.53	35233.25
666.72	35085.80
666.91	34631.15
667.11	34881.00
667.30	35108.33
667.49	34993.64
667.68	34594.29
667.87	34723.31
668.07	34926.06
668.26	35116.52
668.45	34618.86
668.64	34461.17
668.84	34801.13
669.03	34971.11
669.22	34469.36
669.41	34938.35
669.60	34633.20
669.80	34307.57
669.99	34426.35
670.18	34354.68
670.37	34491.89
670.57	34805.23
670.76	34758.13
670.95	34543.09
671.14	34145.78
671.33	34137.59
671.53	34680.30
671.72	34268.66
671.91	34432.50
672.10	34086.39
672.29	34223.61
672.48	34199.03
672.68	34545.14
672.87	34334.20
673.06	33957.37
673.25	34348.53
673.44	34199.03
673.64	33865.21
673.83	33838.59
674.02	34350.58
674.21	33779.20
674.40	34098.68
674.59	34016.76
674.79	33846.78
674.98	34061.82
675.17	34072.06
675.36	34024.95
675.55	34168.31
675.74	34065.91
675.94	34233.85
676.13	33846.78
676.32	34283.00
676.51	34061.82
676.70	33687.04
676.89	34184.69
677.08	34016.76
677.28	33680.89
677.47	34053.62
677.66	34153.97
677.85	34059.77
678.04	33779.20
678.23	34231.80
678.42	33902.07
678.62	33859.07
678.81	33801.72
679.00	33850.88
679.19	33777.15
679.38	33738.24
679.57	33242.63
679.76	33613.31
679.96	33895.93
680.15	33484.29
680.34	33793.53
680.53	33631.74
680.72	33416.71
680.91	33564.16
681.10	33349.12
681.29	33889.79
681.48	33570.30
681.68	33437.19
681.87	33345.03
682.06	33476.10
682.25	33123.85
682.44	33232.39
682.63	33338.88
682.82	33054.22
683.01	33285.64
683.20	33150.47
683.39	32738.83
683.59	33080.84
683.78	32904.71
683.97	33066.50
684.16	33240.58
684.35	32706.06
684.54	32894.47
684.73	32970.25
684.92	32945.67
685.11	32593.42
685.30	32687.63
685.49	33089.03
685.69	32718.35
685.88	32634.38
686.07	32599.57
686.26	32658.96
686.45	32585.23
686.64	32484.88
686.83	32452.11
687.02	32583.18
687.21	32624.14
687.40	32577.04
687.59	32531.98
687.78	32691.73
687.97	32435.73
688.16	32435.73
688.35	32562.70
688.54	32093.72
688.74	32251.41
688.93	32204.31
689.12	32294.42
689.31	32738.83
689.50	32419.35
689.69	32204.31
689.88	32321.04
690.07	32296.47
690.26	32149.01
690.45	32550.42
690.64	31903.26
690.83	32243.22
691.02	32054.81
691.21	31905.31
691.40	31804.95
691.59	32036.38
691.78	31831.58
691.97	31927.83
692.16	32142.87
692.35	32058.90
692.54	31956.50
692.73	31645.21
692.92	31909.40
693.11	31634.97
693.30	31551.01
693.49	31485.47
693.68	31462.94
693.87	31792.67
694.06	31440.42
694.25	31555.10
694.44	31512.10
694.63	31780.38
694.82	31950.36
695.01	31661.60
695.20	31530.53
695.39	31428.13
695.58	31387.17
695.77	31141.41
695.96	30844.46
696.15	31264.29
696.34	31270.43
696.53	31518.24
696.72	31323.68
696.91	31256.10
697.10	31102.50
697.29	30748.20
697.48	31104.55
697.67	31100.45
697.86	31012.39
698.05	30793.26
698.24	31018.53
698.43	30780.97
698.62	30877.22
698.81	30662.19
699.00	30912.04
699.19	30787.11
699.38	30766.63
699.57	30897.70
699.76	30987.82
699.95	30610.99
700.14	30543.41
700.32	30438.96
700.51	30721.58
700.70	30742.06
700.89	30711.34
701.08	30760.49
701.27	30873.13
701.46	30813.74
701.65	30195.25
701.84	30545.45
702.03	30768.68
702.22	30314.03
702.41	30520.88
702.60	30316.08
702.79	30340.66
702.98	30189.11
703.17	30070.33
703.35	30293.55
703.54	29920.82
703.73	30293.55
703.92	30164.53
704.11	30250.55
704.30	30221.87
704.49	30099.00
704.68	29582.91
704.87	30027.32
705.06	29867.58
705.25	29636.16
705.43	29816.38
705.62	30148.15
705.81	29804.09
706.00	29822.52
706.19	29451.84
706.38	29830.71
706.57	29627.96
706.76	29656.64
706.95	29607.48
707.14	29412.93
707.32	29548.09
707.51	29480.51
707.70	29292.10
707.89	29451.84
708.08	29619.77
708.27	29158.98
708.46	29572.67
708.65	29431.36
708.84	29384.26
709.02	29298.24
709.21	29328.96
709.40	29271.62
709.59	29062.72
709.78	29183.55
709.97	28941.89
710.16	28872.26
710.34	28952.13
710.53	29251.14
710.72	29072.96
710.91	28982.85
711.10	29013.57
711.29	28839.50
711.48	28542.54
711.66	28788.30
711.85	28880.46
712.04	28739.15
712.23	28677.71
712.42	28837.45
712.61	28671.56
712.80	28704.33
712.98	28515.92
713.17	28632.65
713.36	28247.63
713.55	28847.69
713.74	28624.46
713.93	28415.57
714.11	28272.21
714.30	28546.64
714.49	28573.26
714.68	28474.96
714.87	28188.24
715.06	28583.50
715.24	28065.36
715.43	28352.08
715.62	27844.18
715.81	28237.39
716.00	28481.10
716.18	28087.89
716.37	27835.99
716.56	27602.52
716.75	28415.57
716.94	28251.73
717.12	27805.27
717.31	28235.35
717.50	28145.23
717.69	27430.49
717.88	27737.69
718.06	27838.04
718.25	28048.98
718.44	27815.51
718.63	27395.68
718.82	27584.09
719.00	27412.06
719.19	27426.40
719.38	27641.43
719.57	27272.80
719.76	27346.53
719.94	27258.46
720.13	27121.25
720.32	27354.72
720.51	26938.98
720.69	26926.69
720.88	26988.13
721.07	27186.79
721.26	26707.56
721.44	26812.01
721.63	26705.51
721.82	26586.73
722.01	26592.87
722.20	27082.34
722.38	26719.85
722.57	26560.11
722.76	26719.85
722.95	26508.91
723.13	26504.81
723.32	26693.22
723.51	26367.60
723.70	26136.18
723.88	26392.17
724.07	26474.09
724.26	26637.93
724.44	26029.68
724.63	26377.84
724.82	26156.66
725.01	25777.78
725.19	26097.27
725.38	26173.04
725.57	26052.21
725.76	25927.28
725.94	25788.02
726.13	25788.02
726.32	25794.17
726.51	25810.55
726.69	26420.84
726.88	25888.37
727.07	25908.85
727.25	25804.41
727.44	25945.72
727.63	26005.11
727.82	25919.09
728.00	25845.37
728.19	26230.38
728.38	25745.02
728.56	25476.73
728.75	25659.00
728.94	25718.39
729.12	25929.33
729.31	25585.27
729.50	25501.31
729.69	25874.04
729.87	25816.69
730.06	25552.51
730.25	25638.52
730.43	25742.97
730.62	25441.92
730.81	25544.31
730.99	25663.10
731.18	25632.38
731.37	25491.07
731.55	25654.90
731.74	25706.10
731.93	25718.39
732.11	25161.34
732.30	25509.50
732.49	25712.25
732.67	25353.85
732.86	24956.55
733.05	25288.32
733.23	24946.31
733.42	24776.33
733.61	25333.37
733.79	25327.23
733.98	25073.28
734.17	25376.38
734.35	24956.55
734.54	25292.41
734.73	24938.12
734.91	25198.21
735.10	24897.16
735.29	25112.19
735.47	24733.32
735.66	25048.71
735.84	24688.26
736.03	24815.24
736.22	24995.46
736.40	24821.38
736.59	24864.39
736.78	24596.10
736.96	24647.30
737.15	24737.41
737.33	24442.51
737.52	24751.75
737.71	24632.97
737.89	24753.80
738.08	24014.48
738.27	24942.21
738.45	24520.33
738.64	24651.40
738.82	24317.58
739.01	24487.56
739.20	24295.05
739.38	24479.37
739.57	24479.37
739.75	24073.87
739.94	24440.46
740.13	24352.40
740.31	24366.73
740.50	24436.36
740.68	24467.08
740.87	24628.87
741.06	24364.68
741.24	24403.60
741.43	24092.30
741.61	24286.86
741.80	24090.26
741.99	24247.95
742.17	24153.74
742.36	23867.03
742.54	23918.23
742.73	24309.39
742.91	24026.77
743.10	24028.82
743.29	24161.94
743.47	24086.16
743.66	23776.92
743.84	24127.12
744.03	23875.22
744.21	23838.36
744.40	24090.26
744.59	23785.11
744.77	23699.09
744.96	23940.75
745.14	23821.97
745.33	23815.83
745.51	23565.98
745.70	24092.30
745.88	23535.26
746.07	23781.01
746.26	23514.78
746.44	23500.44
746.63	23611.03
746.81	23490.20
747.00	23377.56
747.18	23656.09
747.37	23459.48
747.55	23697.05
747.74	23649.94
747.92	23246.49
748.11	23651.99
748.29	23469.72
748.48	23178.91
748.66	23416.47
748.85	23088.80
749.03	23295.64
749.22	23240.35
749.41	23221.92
749.59	23033.50
749.78	23277.21
749.96	22871.72
750.15	22959.78
750.33	23133.86
750.52	22951.59
750.70	22873.76
750.89	23191.20
751.07	22877.86
751.26	23021.22
751.44	22636.20
751.63	22984.35
751.81	22699.69
752.00	22855.33
752.18	22671.01
752.37	22855.33
752.55	22793.89
752.74	22539.94
752.92	22673.06
753.10	22597.29
753.29	22509.22
753.47	22703.78
753.66	22535.85
753.84	22591.14
754.03	22652.58
754.21	22265.52
754.40	22419.11
754.58	22476.46
754.77	22361.77
754.95	22148.78
755.14	22496.94
755.32	22562.47
755.51	22347.44
755.69	22251.18
755.88	22398.63
756.06	22189.74
756.24	22322.86
756.43	21964.46
756.61	22372.01
756.80	22232.75
756.98	22281.90
757.17	22431.40
757.35	22038.19
757.54	22023.86
757.72	22003.38
757.90	21915.31
758.09	21980.85
758.27	21823.16
758.46	22064.82
758.64	21935.79
758.83	21798.58
759.01	21757.62
759.19	22017.71
759.38	21786.29
759.56	21847.73
759.75	22032.05
759.93	21518.01
760.12	21761.72
760.30	21847.73
760.48	21806.77
760.67	21477.05
760.85	21610.17
761.04	21726.90
761.22	21597.88
761.40	21536.44
761.59	21452.47
761.77	21018.30
761.96	21540.54
762.14	21446.33
762.32	21206.72
762.51	21403.32
762.69	20977.34
762.88	21268.16
763.06	21589.69
763.24	21053.12
763.43	21202.62
763.61	21274.30
763.80	21245.63
763.98	21038.78
764.16	21077.69
764.35	21073.60
764.53	21012.16
764.72	20940.48
764.90	21149.37
765.08	21089.98
765.27	21008.06
765.45	20741.83
765.63	20920.00
765.82	20958.91
766.00	20854.47
766.18	20938.43
766.37	20786.88
766.55	20750.02
766.74	20678.34
766.92	20586.18
767.10	20549.32
767.29	20631.24
767.47	20524.74
767.65	20793.03
767.84	20448.97
768.02	20690.63
768.20	20352.71
768.39	20608.71
768.57	20385.48
768.75	20395.72
768.94	20426.44
769.12	20670.15
769.30	20381.38
769.49	20504.26
769.67	20231.88
769.85	20377.29
770.04	20217.55
770.22	20375.24
770.40	20246.22
770.59	20002.51
770.77	20459.21
770.95	20262.60
771.14	20012.75
771.32	19857.10
771.50	20078.29
771.69	20068.05
771.87	19975.89
772.05	19783.38
772.24	19799.76
772.42	19818.19
772.60	19930.83
772.78	19957.46
772.97	19805.91
773.15	19928.78
773.33	19799.76
773.52	19666.64
773.70	19910.35
773.88	19945.17
774.07	19623.64
774.25	19789.52
774.43	19945.17
774.61	19945.17
774.80	19932.88
774.98	20141.77
775.16	19711.70
775.34	19853.01
775.53	19705.56
775.71	19746.51
775.89	19699.41
776.08	19734.23
776.26	19916.50
776.44	19658.45
776.62	19525.33
776.81	19592.92
776.99	19840.72
777.17	19793.62
777.35	19873.49
777.54	20025.04
777.72	19621.59
777.90	20031.18
778.08	19859.15
778.27	19891.92
778.45	19830.48
778.63	20002.51
778.81	19556.05
779.00	19947.22
779.18	19908.30
779.36	19924.69
779.54	19699.41
779.73	19678.93
779.91	20100.81
780.09	19971.79
780.27	19871.44
780.46	20063.95
780.64	20035.28
780.82	19766.99
781.00	19603.16
781.19	20098.77
781.37	20260.55
781.55	19617.49
781.73	19853.01
781.91	19764.95
782.10	19658.45
782.28	19957.46
782.46	19986.13
782.64	20074.19
782.82	20070.09
783.01	19836.63
783.19	19857.10
783.37	19908.30
783.55	19773.14
783.74	19842.77
783.92	19766.99
784.10	20213.45
784.28	19738.32
784.46	19599.06
784.64	19910.35
784.83	19830.48
785.01	19914.45
785.19	19959.50
785.37	19597.01
785.55	19584.73
785.74	19590.87
785.92	19721.94
786.10	19713.75
786.28	19652.31
786.46	19764.95
786.64	19580.63
786.83	19687.12
787.01	19691.22
787.19	19715.80
787.37	19654.36
787.55	19543.77
787.74	19513.05
787.92	19478.23
788.10	19482.33
788.28	19429.08
788.46	19660.50
788.64	19574.49
788.82	19597.01
789.01	19398.36
789.19	19406.55
789.37	19322.59
789.55	19302.11
789.73	19379.93
789.91	19244.76
790.09	19168.99
790.28	19130.08
790.46	19218.14
790.64	19136.22
790.82	19064.54
791.00	19119.84
791.18	18783.97
791.36	19162.84
791.55	18859.74
791.73	18910.94
791.91	18661.09
792.09	18902.75
792.27	18960.09
792.45	18730.72
792.63	19013.34
792.81	18747.11
793.00	18783.97
793.18	18611.94
793.36	18906.85
793.54	18341.61
793.72	18697.95
793.90	18347.75
794.08	18710.24
794.26	18239.21
794.44	18052.84
794.62	18185.96
794.81	18308.84
794.99	18222.83
795.17	18188.01
795.35	18122.48
795.53	18077.42
795.71	18167.53
795.89	17960.69
796.07	17868.53
796.25	17841.90
796.43	18042.60
796.61	18073.32
796.80	17590.00
796.98	17977.07
797.16	17682.16
797.34	18042.60
797.52	17739.51
797.70	17641.20
797.88	17649.39
798.06	17559.28
798.24	17499.89
798.42	17579.76
798.60	17565.43
798.78	17573.62
798.96	17360.63
799.14	17284.86
799.32	17426.17
799.51	17288.95
799.69	17409.78
799.87	17319.67
800.05	16946.94
800.23	17241.85
800.41	16895.74
800.59	16961.28
800.77	17041.15
800.95	17184.51
801.13	16916.22
801.31	16760.58
801.49	16840.45
801.67	16762.62
801.85	16781.06
802.03	16865.02
802.21	16676.61
802.39	16748.29
802.57	16649.99
802.75	16639.75
802.93	16637.70
803.11	16699.14
803.29	16613.12
803.47	16297.74
803.65	16287.50
803.83	16508.68
804.01	16324.36
804.19	16463.62
804.37	16164.62
804.55	16234.25
804.73	16398.09
804.91	16172.81
805.09	16312.07
805.27	16137.99
805.45	16156.43
805.63	16105.23
805.81	16056.08
805.99	16183.05
806.17	16054.03
806.35	16121.61
806.53	15970.06
806.71	15972.11
806.89	15869.71
807.07	15761.17
807.25	15922.96
807.43	15597.33
807.61	15875.85
807.79	15716.11
807.97	15648.53
808.15	15507.22
808.33	15585.04
808.51	15447.83
808.69	15494.93
808.87	15245.08
809.05	15308.57
809.23	15529.75
809.41	15130.39
809.59	15327.00
809.77	15435.54
809.95	15169.30
810.13	15232.79
810.31	15265.56
810.49	15118.11
810.67	15290.13
810.84	15200.02
811.02	15138.58
811.20	14778.14
811.38	15130.39
811.56	14901.02
811.74	14939.93
811.92	14835.49
812.10	14958.36
812.28	14944.03
812.46	15116.06
812.64	14876.44
812.82	14591.78
813.00	14739.23
813.18	14868.25
813.36	14559.01
813.53	14675.74
813.71	14610.21
813.89	14550.82
814.07	14583.59
814.25	14577.44
814.43	14446.37
814.61	14309.16
814.79	14280.49
814.97	14491.43
815.15	14278.44
815.33	14366.50
815.50	14102.31
815.68	14417.70
815.86	14307.11
816.04	14135.08
816.22	14130.98
816.40	14315.30
816.58	14249.77
816.76	14196.52
816.94	14157.61
817.11	14251.81
817.29	14047.02
817.47	14108.46
817.65	13881.13
817.83	13895.47
818.01	13735.73
818.19	13752.11
818.37	13680.43
818.54	13641.52
818.72	13518.64
818.90	13780.78
819.08	13649.71
819.26	13555.51
819.44	13928.24
819.62	13559.60
819.80	13469.49
819.97	13399.86
820.15	13399.86
820.33	13477.68
820.51	13385.52
820.69	13303.60
820.87	13272.89
821.05	13565.74
821.22	13565.74
821.40	13467.44
821.58	13365.04
821.76	13363.00
821.94	13211.45
822.12	13209.40
822.29	13508.40
822.47	13332.28
822.65	13152.06
822.83	13182.77
823.01	13240.12
823.19	13334.32
823.36	12918.59
823.54	12928.83
823.72	12982.07
823.90	13012.79
824.08	12953.40
824.25	13016.89
824.43	12943.16
824.61	12924.73
824.79	13070.14
824.97	12818.24
825.15	13070.14
825.32	12975.93
825.50	12738.37
825.68	12736.32
825.86	12988.22
826.04	12824.38
826.21	12932.92
826.39	12848.96
826.57	12769.09
826.75	12789.56
826.93	12719.93
827.10	12689.21
827.28	12834.62
827.46	12920.63
827.64	12492.61
827.81	12797.76
827.99	12828.48
828.17	12586.82
828.35	12502.85
828.53	12586.82
828.70	12511.04
828.88	12631.87
829.06	12472.13
829.24	12623.68
829.41	12603.20
829.59	12402.50
829.77	12332.87
829.95	12394.31
830.12	12134.21
830.30	12271.43
830.48	12357.44
830.66	12203.85
830.84	12177.22
831.01	12222.28
831.19	12189.51
831.37	12109.64
831.55	12146.50
831.72	12171.08
831.90	12144.45
832.08	12236.61
832.25	12150.60
832.43	12052.30
832.61	11925.32
832.79	11990.86
832.96	11929.42
833.14	12046.15
833.32	12109.64
833.50	11974.47
833.67	11931.47
833.85	12015.43
834.03	11728.72
834.20	12015.43
834.38	11978.57
834.56	12013.38
834.74	11718.48
834.91	11786.06
835.09	11796.30
835.27	11663.18
835.44	11546.45
835.62	11493.20
835.80	11736.91
835.98	11851.60
836.15	11601.74
836.33	11609.93
836.51	11581.26
836.68	11614.03
836.86	11700.05
837.04	11501.39
837.21	11611.98
837.39	11583.31
837.57	11521.87
837.75	11515.73
837.92	11427.67
838.10	11503.44
838.28	11355.99
838.45	11276.12
838.63	11312.98
838.81	11452.24
838.98	11261.78
839.16	11235.16
839.34	11353.94
839.51	11392.85
839.69	10917.72
839.87	11362.13
840.04	11331.41
840.22	11198.29
840.40	11362.13
840.57	11083.61
840.75	11167.57
840.93	11208.53
841.10	11130.71
841.28	11300.69
841.46	11116.37
841.63	11237.20
841.81	11030.36
841.98	11036.50
842.16	10952.54
842.34	11126.61
842.51	10905.43
842.69	11138.90
842.87	11048.79
843.04	11005.78
843.22	11095.89
843.40	10889.05
843.57	11048.79
843.75	10948.44
843.92	10925.91
844.10	10889.05
844.28	10868.57
844.45	10979.16
844.63	10600.29
844.81	10954.58
844.98	10790.75
845.16	10764.12
845.33	10796.89
845.51	10575.71
845.69	10493.79
845.86	10719.07
846.04	10454.88
846.21	10737.50
846.39	10622.81
846.57	10803.04
846.74	10657.63
846.92	10602.33
847.09	10637.15
847.27	10418.02
847.45	10508.13
847.62	10706.78
847.80	10501.98
847.97	10624.86
848.15	10520.42
848.32	10391.39
848.50	10438.50
848.68	10479.46
848.85	10649.44
849.03	10375.01
849.20	10530.66
849.38	10385.25
849.56	10639.20
849.73	10510.18
849.91	10170.21
850.08	10383.20
850.26	10356.58
850.43	10215.27
850.61	10340.19
850.78	10190.69
850.96	10332.00
851.14	10045.29
851.31	10340.19
851.49	10143.59
851.66	10096.49
851.84	10147.69
852.01	10108.77
852.19	10051.43
852.36	10125.16
852.54	10024.81
852.71	9977.70
852.89	10041.19
853.07	10000.23
853.24	9944.94
853.42	10037.09
853.59	10026.86
853.77	10094.44
853.94	10102.63
854.12	9989.99
854.29	9979.75
854.47	10053.48
854.64	9820.01
854.82	9934.70
854.99	9881.45
855.17	9756.52
855.34	9744.24
855.52	9801.58
855.69	9781.10
855.87	9953.13
856.04	9705.32
856.22	9826.15
856.39	9774.95
856.57	9760.62
856.74	9594.73
856.92	9709.42
857.09	9764.72
857.27	9494.38
857.44	9715.56
857.62	9738.09
857.79	9613.17
857.97	9496.43
858.14	9471.86
858.32	9521.01
858.49	9619.31
858.67	9400.18
858.84	9480.05
859.02	9453.42
859.19	9580.40
859.37	9439.09
859.54	9467.76
859.72	9590.64
859.89	9273.20
860.06	9541.49
860.24	9418.61
860.41	9488.24
860.59	9258.87
860.76	9469.81
860.94	9142.13
861.11	9271.15
861.29	9424.75
861.46	9418.61
861.64	9334.64
861.81	9191.28
861.98	9424.75
862.16	9115.51
862.33	9258.87
862.51	9246.58
862.68	9301.87
862.86	9146.23
863.03	9254.77
863.21	9256.82
863.38	9346.93
863.55	9144.18
863.73	9303.92
863.90	8966.01
864.08	9066.36
864.25	9156.47
864.43	9168.76
864.60	9211.76
864.77	8912.76
864.95	9152.37
865.12	9064.31
865.30	9176.95
865.47	8923.00
865.64	9019.25
865.82	9064.31
865.99	9158.52
866.17	8966.01
866.34	9107.32
866.51	8988.53
866.69	8972.15
866.86	8953.72
867.04	9009.01
867.21	8861.56
867.38	8767.35
867.56	8763.26
867.73	8738.68
867.91	8681.34
868.08	8761.21
868.25	8836.99
868.43	8585.08
868.60	8482.69
868.78	8578.94
868.95	8556.41
869.12	8781.69
869.30	8755.07
869.47	8482.69
869.64	8529.79
869.82	8394.62
869.99	8413.06
870.16	8656.76
870.34	8570.75
870.51	8531.84
870.69	8552.32
870.86	8363.90
871.03	8355.71
871.21	8501.12
871.38	8284.03
871.55	8347.52
871.73	8275.84
871.90	8445.82
872.07	8247.17
872.25	8222.59
872.42	8347.52
872.59	8292.23
872.77	8284.03
872.94	8259.46
873.11	8177.54
873.29	8335.23
873.46	8140.68
873.63	8277.89
873.81	8146.82
873.98	8054.66
874.15	8122.24
874.33	8118.15
874.50	7884.68
874.67	8044.42
874.85	7960.45
875.02	8036.23
875.19	8150.92
875.37	8087.43
875.54	7901.06
875.71	7974.79
875.88	7894.92
876.06	7772.04
876.23	7931.78
876.40	7985.03
876.58	7952.26
876.75	8003.46
876.92	7790.47
877.10	7851.91
877.27	7735.18
877.44	7798.66
877.61	7706.51
877.79	7683.98
877.96	7706.51
878.13	7845.77
878.31	7794.57
878.48	7630.73
878.65	7640.97
878.82	7507.85
879.00	7581.58
879.17	7569.29
879.34	7542.67
879.51	7425.93
879.69	7602.06
879.86	7565.20
880.03	7524.24
880.21	7485.33
880.38	7534.48
880.55	7530.38
880.72	7378.83
880.90	7475.09
881.07	7491.47
881.24	7526.29
881.41	7374.74
881.59	7419.79
881.76	7497.61
881.93	7413.65
882.10	7337.87
882.28	7450.51
882.45	7403.41
882.62	7354.26
882.79	7466.89
882.96	7100.31
883.14	7266.19
883.31	7298.96
883.48	7395.22
883.65	7360.40
883.83	7276.43
884.00	7464.85
884.17	7331.73
884.34	7352.21
884.51	7350.16
884.69	7184.27
884.86	7303.06
885.03	7268.24
885.20	7249.81
885.38	7131.03
885.55	7258.00
885.72	7014.29
885.89	7208.85
886.06	7315.34
886.24	7251.86
886.41	7128.98
886.58	7276.43
886.75	7137.17
886.92	7135.12
887.10	7004.05
887.27	7075.73
887.44	7012.24
887.61	7247.76
887.78	7176.08
887.95	7167.89
888.13	7073.68
888.30	7049.11
888.47	6981.53
888.64	6993.81
888.81	7055.25
888.99	6713.24
889.16	7040.92
889.33	7040.92
889.50	6971.29
889.67	7069.59
889.84	6975.38
890.01	6922.13
890.19	7049.11
890.36	7085.97
890.53	6887.32
890.70	6768.54
890.87	6707.10
891.04	6725.53
891.22	6756.25
891.39	6739.87
891.56	6907.80
891.73	6852.50
891.90	6709.15
892.07	6780.82
892.24	6903.70
892.42	6852.50
892.59	6723.48
892.76	6721.43
892.93	6696.86
893.10	6653.85
893.27	6733.72
893.44	6764.44
893.61	6453.15
893.79	6840.22
893.96	6502.30
894.13	6600.60
894.30	6612.89
894.47	6840.22
894.64	6498.20
894.81	6619.04
894.98	6651.80
895.15	6662.04
895.33	6547.36
895.50	6664.09
895.67	6686.62
895.84	6479.77
896.01	6547.36
896.18	6549.40
896.35	6541.21
896.52	6598.56
896.69	6576.03
896.86	6365.09
897.04	6541.21
897.21	6420.38
897.38	6457.25
897.55	6547.36
897.72	6680.47
897.89	6391.71
898.06	6688.67
898.23	6582.17
898.40	6440.86
898.57	6567.84
898.74	6524.83
898.91	6442.91
899.08	6299.55
899.26	6412.19
899.43	6596.51
899.60	6387.61
899.77	6494.11
899.94	6401.95
900.11	6330.27
900.28	6324.13
900.45	6447.01
900.62	6430.62
900.79	6555.55
900.96	6401.95
901.13	6434.72
901.30	6227.87
901.47	6246.30
901.64	6463.39
901.81	6369.18
901.98	6285.22
902.15	6451.10
902.32	6332.32
902.49	6262.69
902.66	6399.90
902.83	6354.85
903.01	6399.90
903.18	6242.21
903.35	6223.78
903.52	6328.22
903.69	6428.57
903.86	6404.00
904.03	6354.85
904.20	6406.05
904.37	6297.50
904.54	6545.31
904.71	6317.98
904.88	6320.03
905.05	6184.87
905.22	6254.50
905.39	6186.91
905.56	6266.78
905.73	6293.41
905.90	6420.38
906.07	6145.95
906.24	6287.26
906.41	6277.02
906.58	6385.57
906.75	6250.40
906.92	6289.31
907.09	6277.02
907.26	6236.06
907.43	6309.79
907.60	6385.57
907.77	6305.70
907.93	6197.15
908.10	6285.22
908.27	6408.09
908.44	6279.07
908.61	6248.35
908.78	6272.93
908.95	6414.24
909.12	6154.15
909.29	6383.52
909.46	6320.03
909.63	6164.39
909.80	6277.02
909.97	6121.38
910.14	6346.66
910.31	6209.44
910.48	6229.92
910.65	6137.76
910.82	6211.49
910.99	6004.64
911.16	6135.71
911.33	6197.15
911.50	6109.09
911.66	6207.39
911.83	6160.29
912.00	6043.56
912.17	5949.35
912.34	6074.28
912.51	6109.09
912.68	6076.32
912.85	5986.21
913.02	6016.93
913.19	5898.15
913.36	5980.07
913.53	5990.31
913.70	5834.66
913.86	5939.11
914.03	5932.97
914.20	6150.05
914.37	5846.95
914.54	5871.53
914.71	5902.25
914.88	5990.31
915.05	5799.85
915.22	5805.99
915.39	5867.43
915.55	5926.82
915.72	5820.33
915.89	5836.71
916.06	5683.11
916.23	5859.24
916.40	5801.90
916.57	5703.59
916.74	5748.65
916.91	5762.98
917.07	5599.15
917.24	5603.24
917.41	5701.54
917.58	5631.91
917.75	5648.30
917.92	5654.44
918.09	5593.00
918.26	5715.88
918.42	5625.77
918.59	5617.58
918.76	5470.12
918.93	5472.17
919.10	5574.57
919.27	5683.11
919.44	5537.71
919.60	5572.52
919.77	5412.78
919.94	5500.84
920.11	5435.31
920.28	5429.17
920.45	5371.82
920.61	5394.35
920.78	5334.96
920.95	5322.67
921.12	5445.55
921.29	5396.40
921.46	5222.32
921.62	5275.57
921.79	5445.55
921.96	5218.22
922.13	5171.12
922.30	5367.73
922.47	5281.71
922.63	5296.05
922.80	5044.15
922.97	5167.03
923.14	5015.48
923.31	5234.61
923.47	5230.51
923.64	4995.00
923.81	5113.78
923.98	5179.31
924.15	5197.74
924.32	4966.32
924.48	4992.95
924.65	5048.24
924.82	5066.67
924.99	5005.24
925.15	4982.71
925.32	4943.80
925.49	4939.70
925.66	4882.36
925.83	4835.25
925.99	4949.94
926.16	4820.92
926.33	4890.55
926.50	4745.14
926.67	4835.25
926.83	4761.53
927.00	4712.38
927.17	4616.12
927.34	4702.14
927.50	4876.21
927.67	4663.22
927.84	4718.52
928.01	4661.18
928.17	4538.30
928.34	4644.79
928.51	4548.54
928.68	4548.54
928.84	4480.96
929.01	4585.40
929.18	4544.44
929.35	4558.78
929.51	4640.70
929.68	4442.04
929.85	4495.29
930.02	4558.78
930.18	4458.43
930.35	4456.38
930.52	4431.80
930.69	4470.72
930.85	4378.56
931.02	4534.20
931.19	4296.64
931.36	4313.02
931.52	4349.89
931.69	4466.62
931.86	4341.69
932.02	4300.73
932.19	4173.76
932.36	4319.17
932.53	4161.47
932.69	4245.44
932.86	4104.13
933.03	4128.70
933.19	4124.61
933.36	4165.57
933.53	4216.77
933.70	4138.94
933.86	4159.42
934.03	3995.59
934.20	3987.40
934.36	4011.97
934.53	3942.34
934.70	4050.88
934.86	3932.10
935.03	3989.44
935.20	3837.89
935.36	3872.71
935.53	3868.61
935.70	3868.61
935.86	3665.86
936.03	3772.36
936.20	3639.24
936.36	3663.82
936.53	3712.97
936.70	3792.84
936.86	3766.21
937.03	3651.53
937.20	3665.86
937.36	3577.80
937.53	3504.07
937.70	3563.47
937.86	3549.13
938.03	3413.96
938.20	3450.83
938.36	3426.25
938.53	3448.78
938.70	3401.68
938.86	3360.72
939.03	3346.38
939.20	3276.75
939.36	3282.89
939.53	3192.78
939.70	3346.38
939.86	3223.50
940.03	3155.92
940.19	3090.38
940.36	3045.33
940.53	3133.39
940.69	3043.28
940.86	3229.65
941.03	3092.43
941.19	3143.63
941.36	2930.64
941.52	2949.08
941.69	2949.08
941.86	2824.15
942.02	2955.22
942.19	2795.48
942.35	2926.55
942.52	2811.86
942.69	2854.87
942.85	2803.67
943.02	2811.86
943.18	2854.87
943.35	2750.42
943.52	2734.04
943.68	2691.03
943.85	2723.80
944.01	2785.24
944.18	2699.22
944.35	2807.77
944.51	2645.98
944.68	2734.04
944.84	2723.80
945.01	2613.21
945.17	2613.21
945.34	2621.40
945.51	2678.74
945.67	2639.83
945.84	2613.21
946.00	2652.12
946.17	2619.35
946.33	2557.91
946.50	2611.16
946.67	2539.48
946.83	2578.39
947.00	2668.50
947.16	2582.49
947.33	2570.20
947.49	2496.47
947.66	2500.57
947.82	2648.02
947.99	2484.19
948.16	2504.67
948.32	2562.01
948.49	2549.72
948.65	2584.54
948.82	2514.91
948.98	2533.34
949.15	2576.34
949.31	2512.86
949.48	2512.86
949.64	2535.39
949.81	2570.20
949.97	2453.47
950.14	2543.58
950.30	2471.90
950.47	2564.06
950.63	2547.67
950.80	2445.27
950.96	2437.08
951.13	2600.92
951.30	2494.43
951.46	2498.52
951.63	2580.44
951.79	2502.62
951.96	2506.71
952.12	2420.70
952.29	2574.30
952.45	2510.81
952.62	2545.63
952.78	2570.20
952.94	2498.52
953.11	2394.08
953.27	2539.48
953.44	2568.15
953.60	2523.10
953.77	2484.19
953.93	2414.56
954.10	2471.90
954.26	2473.95
954.43	2535.39
954.59	2525.15
954.76	2566.10
954.92	2496.47
955.09	2443.23
955.25	2478.04
955.42	2521.05
955.58	2613.21
955.75	2471.90
955.91	2471.90
956.07	2441.18
956.24	2480.09
956.40	2502.62
956.57	2473.95
956.73	2502.62
956.90	2447.32
957.06	2473.95
957.23	2408.41
957.39	2475.99
957.56	2441.18
957.72	2480.09
957.88	2412.51
958.05	2453.47
958.21	2516.95
958.38	2328.54
958.54	2385.88
958.71	2482.14
958.87	2467.80
959.03	2482.14
959.20	2389.98
959.36	2351.07
959.53	2416.60
959.69	2461.66
959.85	2437.08
960.02	2392.03
960.18	2428.89
960.35	2396.12
960.51	2385.88
960.68	2455.51
960.84	2445.27
961.00	2375.64
961.17	2398.17
961.33	2371.55
961.50	2394.08
961.66	2336.73
961.82	2430.94
961.99	2465.75
962.15	2437.08
962.31	2316.25
962.48	2453.47
962.64	2383.84
962.81	2361.31
962.97	2383.84
963.13	2377.69
963.30	2346.97
963.46	2330.59
963.62	2363.36
963.79	2303.96
963.95	2381.79
964.12	2314.20
964.28	2363.36
964.44	2320.35
964.61	2430.94
964.77	2398.17
964.93	2428.89
965.10	2381.79
965.26	2320.35
965.42	2389.98
965.59	2334.68
965.75	2281.44
965.92	2365.40
966.08	2334.68
966.24	2301.92
966.41	2318.30
966.57	2310.11
966.73	2301.92
966.90	2353.12
967.06	2260.96
967.22	2330.59
967.39	2346.97
967.55	2349.02
967.71	2346.97
967.88	2353.12
968.04	2273.25
968.20	2308.06
968.37	2217.95
968.53	2205.66
968.69	2340.83
968.85	2338.78
969.02	2418.65
969.18	2318.30
969.34	2355.16
969.51	2303.96
969.67	2336.73
969.83	2285.53
970.00	2441.18
970.16	2324.44
970.32	2365.40
970.48	2322.40
970.65	2281.44
970.81	2258.91
970.97	2336.73
971.14	2232.29
971.30	2285.53
971.46	2242.53
971.63	2240.48
971.79	2215.90
971.95	2328.54
972.11	2185.18
972.28	2246.62
972.44	2230.24
972.60	2215.90
972.76	2258.91
972.93	2256.86
973.09	2320.35
973.25	2197.47
973.42	2181.09
973.58	2224.09
973.74	2326.49
973.90	2236.38
974.07	2152.42
974.23	2189.28
974.39	2234.33
974.55	2207.71
974.72	2207.71
974.88	2123.74
975.04	2238.43
975.20	2234.33
975.37	2299.87
975.53	2197.47
975.69	2195.42
975.85	2246.62
976.01	2160.61
976.18	2213.85
976.34	2230.24
976.50	2273.25
976.66	2240.48
976.83	2133.98
976.99	2097.12
977.15	2154.46
977.31	2133.98
977.47	2174.94
977.64	2170.85
977.80	2263.01
977.96	2107.36
978.12	2123.74
978.29	2154.46
978.45	2129.89
978.61	2156.51
978.77	2160.61
978.93	2162.66
979.10	2152.42
979.26	2086.88
979.42	2136.03
979.58	2068.45
979.74	2150.37
979.91	2138.08
980.07	2136.03
980.23	2168.80
980.39	2127.84
980.55	2082.78
980.71	2082.78
980.88	2113.50
981.04	2109.41
981.20	2103.26
981.36	2152.42
981.52	2037.73
981.68	2113.50
981.85	2119.65
982.01	2056.16
982.17	2072.54
982.33	2113.50
982.49	2158.56
982.65	2062.30
982.82	2093.02
982.98	2054.11
983.14	2093.02
983.30	2129.89
983.46	2168.80
983.62	2133.98
983.79	2041.82
983.95	2052.06
984.11	1976.29
984.27	2150.37
984.43	2031.58
984.59	2060.26
984.75	2140.13
984.91	2156.51
985.08	2099.17
985.24	1996.77
985.40	2101.22
985.56	2070.50
985.72	2066.40
985.88	2093.02
986.04	2004.96
986.20	2160.61
986.37	2015.20
986.53	2011.11
986.69	1988.58
986.85	1955.81
987.01	2060.26
987.17	2060.26
987.33	2093.02
987.49	2002.91
987.65	1986.53
987.82	2052.06
987.98	2043.87
988.14	1951.71
988.30	1941.47
988.46	2027.49
988.62	2025.44
988.78	2088.93
988.94	2095.07
989.10	2101.22
989.26	1925.09
989.42	2007.01
989.59	1939.43
989.75	1955.81
989.91	2045.92
990.07	1918.95
990.23	1990.63
990.39	2031.58
990.55	2097.12
990.71	1964.00
990.87	2041.82
991.03	1982.43
991.19	2007.01
991.35	2013.15
991.51	1941.47
991.67	2027.49
991.83	1990.63
992.00	1925.09
992.16	2062.30
992.32	1941.47
992.48	2086.88
992.64	1947.62
992.80	1880.04
992.96	1998.82
993.12	1882.08
993.28	2027.49
993.44	2029.54
993.60	1955.81
993.76	1927.14
993.92	1925.09
994.08	2043.87
994.24	1908.71
994.40	1988.58
994.56	1966.05
994.72	1888.23
994.88	1873.89
995.04	2007.01
995.20	1912.80
995.36	1906.66
995.52	1970.15
995.68	1988.58
995.84	1867.75
996.00	1890.28
996.16	1943.52
996.32	1871.84
996.48	1941.47
996.64	1927.14
996.80	1986.53
996.96	2035.68
997.12	1953.76
997.28	1851.36
997.44	1841.12
997.60	1877.99
997.76	1910.75
997.92	1957.86
998.08	1873.89
998.24	1896.42
998.40	1951.71
998.56	1904.61
998.72	1830.88
998.88	1933.28
999.04	1865.70
999.20	1992.67
999.36	1861.60
999.52	1976.29
999.68	1865.70
999.84	1968.10
1000.00	1861.60
1000.16	1953.76
1000.32	1859.56
1000.48	1931.23
1000.64	1851.36
1000.80	1843.17
1000.95	1851.36
1001.11	1847.27
1001.27	1802.21
1001.43	1877.99
1001.59	1808.36
1001.75	1869.80
1001.91	1816.55
1002.07	1843.17
1002.23	1824.74
1002.39	1816.55
1002.55	1904.61
1002.71	1898.47
1002.87	1816.55
1003.03	1800.16
1003.19	1869.80
1003.34	1896.42
1003.50	1822.69
1003.66	1896.42
1003.82	1871.84
1003.98	1843.17
1004.14	1826.79
1004.30	1800.16
1004.46	1798.12
1004.62	1777.64
1004.78	1884.13
1004.94	1775.59
1005.09	1798.12
1005.25	1830.88
1005.41	1834.98
1005.57	1830.88
1005.73	1777.64
1005.89	1828.84
1006.05	1800.16
1006.21	1853.41
1006.37	1855.46
1006.52	1810.40
1006.68	1814.50
1006.84	1812.45
1007.00	1808.36
1007.16	1828.84
1007.32	1777.64
1007.48	1869.80
1007.64	1818.60
1007.79	1843.17
1007.95	1775.59
1008.11	1820.64
1008.27	1822.69
1008.43	1781.73
1008.59	1877.99
1008.75	1746.92
1008.91	1753.06
1009.06	1791.97
1009.22	1775.59
1009.38	1759.21
1009.54	1863.65
1009.70	1781.73
1009.86	1808.36
1010.01	1796.07
1010.17	1822.69
1010.33	1822.69
1010.49	1777.64
1010.65	1828.84
1010.81	1755.11
1010.96	1738.73
1011.12	1744.87
1011.28	1726.44
1011.44	1810.40
1011.60	1824.74
1011.76	1736.68
1011.91	1748.97
1012.07	1734.63
1012.23	1759.21
1012.39	1751.01
1012.55	1738.73
1012.71	1787.88
1012.86	1703.91
1013.02	1791.97
1013.18	1744.87
1013.34	1712.10
1013.50	1802.21
1013.65	1765.35
1013.81	1732.58
1013.97	1699.81
1014.13	1744.87
1014.29	1785.83
1014.44	1763.30
1014.60	1767.40
1014.76	1687.53
1014.92	1804.26
1015.07	1730.53
1015.23	1779.68
1015.39	1665.00
1015.55	1705.96
1015.71	1775.59
1015.86	1714.15
1016.02	1748.97
1016.18	1669.09
1016.34	1763.30
1016.49	1759.21
1016.65	1710.05
1016.81	1732.58
1016.97	1763.30
1017.12	1705.96
1017.28	1802.21
1017.44	1640.42
1017.60	1718.25
1017.75	1716.20
1017.91	1718.25
1018.07	1708.01
1018.23	1660.90
1018.38	1712.10
1018.54	1773.54
1018.70	1695.72
1018.86	1734.63
1019.01	1654.76
1019.17	1701.86
1019.33	1730.53
1019.49	1710.05
1019.64	1662.95
1019.80	1705.96
1019.96	1736.68
1020.12	1736.68
1020.27	1660.90
1020.43	1734.63
1020.59	1789.92
1020.74	1732.58
1020.90	1726.44
1021.06	1710.05
1021.22	1703.91
1021.37	1628.14
1021.53	1654.76
1021.69	1732.58
1021.84	1744.87
1022.00	1691.62
1022.16	1660.90
1022.31	1738.73
1022.47	1781.73
1022.63	1691.62
1022.79	1619.94
1022.94	1693.67
1023.10	1675.24
1023.26	1728.49
1023.41	1632.23
1023.57	1716.20
1023.73	1677.29
1023.88	1685.48
1024.04	1699.81
1024.20	1677.29
1024.35	1673.19
1024.51	1687.53
1024.67	1626.09
1024.82	1726.44
1024.98	1705.96
1025.14	1699.81
1025.29	1624.04
1025.45	1656.81
1025.61	1654.76
1025.76	1716.20
1025.92	1751.01
1026.08	1634.28
1026.23	1660.90
1026.39	1767.40
1026.55	1656.81
1026.70	1687.53
1026.86	1677.29
1027.02	1650.66
1027.17	1669.09
1027.33	1728.49
1027.48	1621.99
1027.64	1603.56
1027.80	1640.42
1027.95	1652.71
1028.11	1650.66
1028.27	1615.85
1028.42	1734.63
1028.58	1701.86
1028.73	1552.36
1028.89	1560.55
1029.05	1683.43
1029.20	1624.04
>>>>>End Processed Spectral Data<<<<<
