SpectraSuite Data File
++++++++++++++++++++++++++++++++++++
Date: Tue Jun 13 11:53:15 CEST 2017
User: INFO_000
Dark Spectrum Present: No
Reference Spectrum Present: No
Number of Sampled Component Spectra: 1
Spectrometers: USB4H00879
Integration Time (usec): 30000 (USB4H00879)
Spectra Averaged: 1 (USB4H00879)
Boxcar Smoothing: 0 (USB4H00879)
Correct for Electrical Dark: No (USB4H00879)
Strobe/Lamp Enabled: No (USB4H00879)
Correct for Detector Non-linearity: No (USB4H00879)
Correct for Stray Light: No (USB4H00879)
Number of Pixels in Processed Spectrum: 3648
>>>>>Begin Processed Spectral Data<<<<<
345.13	1314.80
345.34	1314.80
345.56	1314.80
345.78	1288.17
345.99	1325.04
346.21	1509.35
346.42	1550.31
346.64	1499.11
346.86	1523.69
347.07	1480.68
347.29	1607.66
347.50	1470.44
347.72	1527.78
347.94	1548.26
348.15	1490.92
348.37	1484.78
348.59	1458.15
348.80	1492.97
349.02	1538.02
349.23	1640.42
349.45	1613.80
349.67	1628.14
349.88	1581.03
350.10	1695.72
350.31	1548.26
350.53	1601.51
350.75	1615.85
350.96	1611.75
351.18	1662.95
351.39	1587.18
351.61	1570.79
351.82	1597.42
352.04	1689.57
352.26	1515.50
352.47	1615.85
352.69	1675.24
352.90	1544.17
353.12	1591.27
353.34	1636.33
353.55	1679.33
353.77	1626.09
353.98	1611.75
354.20	1568.74
354.41	1681.38
354.63	1619.94
354.85	1593.32
355.06	1660.90
355.28	1632.23
355.49	1691.62
355.71	1689.57
355.92	1615.85
356.14	1656.81
356.35	1632.23
356.57	1628.14
356.79	1685.48
357.00	1597.42
357.22	1716.20
357.43	1595.37
357.65	1677.29
357.86	1540.07
358.08	1660.90
358.29	1656.81
358.51	1669.09
358.72	1671.14
358.94	1683.43
359.16	1628.14
359.37	1669.09
359.59	1675.24
359.80	1728.49
360.02	1746.92
360.23	1697.77
360.45	1660.90
360.66	1632.23
360.88	1679.33
361.09	1660.90
361.31	1679.33
361.52	1667.05
361.74	1755.11
361.95	1798.12
362.17	1722.34
362.38	1718.25
362.60	1679.33
362.81	1658.85
363.03	1654.76
363.24	1740.77
363.46	1767.40
363.67	1710.05
363.89	1691.62
364.10	1738.73
364.32	1691.62
364.53	1791.97
364.75	1726.44
364.96	1714.15
365.18	1644.52
365.39	1779.68
365.61	1662.95
365.82	1791.97
366.04	1726.44
366.25	1767.40
366.47	1761.25
366.68	1746.92
366.90	1748.97
367.11	1726.44
367.33	1781.73
367.54	1746.92
367.76	1777.64
367.97	1759.21
368.19	1720.29
368.40	1779.68
368.62	1734.63
368.83	1699.81
369.05	1806.31
369.26	1703.91
369.48	1837.03
369.69	1697.77
369.91	1734.63
370.12	1761.25
370.33	1787.88
370.55	1794.02
370.76	1800.16
370.98	1757.16
371.19	1785.83
371.41	1748.97
371.62	1800.16
371.84	1802.21
372.05	1769.44
372.27	1839.08
372.48	1781.73
372.69	1828.84
372.91	1910.75
373.12	1845.22
373.34	1810.40
373.55	1808.36
373.77	1834.98
373.98	1857.51
374.20	1867.75
374.41	1931.23
374.62	1812.45
374.84	1896.42
375.05	1863.65
375.27	1822.69
375.48	1877.99
375.70	1834.98
375.91	1929.19
376.12	1980.39
376.34	1896.42
376.55	1863.65
376.77	1851.36
376.98	1843.17
377.19	1861.60
377.41	1955.81
377.62	1904.61
377.84	1953.76
378.05	1968.10
378.27	1966.05
378.48	1966.05
378.69	2011.11
378.91	2015.20
379.12	1927.14
379.34	1994.72
379.55	1927.14
379.76	1920.99
379.98	2011.11
380.19	1994.72
380.41	1943.52
380.62	1978.34
380.83	1974.24
381.05	1880.04
381.26	2023.39
381.47	1961.95
381.69	1908.71
381.90	1974.24
382.12	1943.52
382.33	1966.05
382.54	2017.25
382.76	1982.43
382.97	2058.21
383.19	2068.45
383.40	2045.92
383.61	2074.59
383.83	2031.58
384.04	2058.21
384.25	2054.11
384.47	2066.40
384.68	2109.41
384.89	2119.65
385.11	2093.02
385.32	2093.02
385.54	2088.93
385.75	2121.70
385.96	2033.63
386.18	2113.50
386.39	2152.42
386.60	2109.41
386.82	2142.18
387.03	2140.13
387.24	2113.50
387.46	2224.09
387.67	2164.70
387.88	2176.99
388.10	2111.46
388.31	2181.09
388.52	2244.57
388.74	2181.09
388.95	2260.96
389.16	2183.13
389.38	2220.00
389.59	2279.39
389.80	2265.05
390.02	2193.37
390.23	2281.44
390.44	2289.63
390.66	2291.68
390.87	2306.01
391.08	2324.44
391.30	2353.12
391.51	2324.44
391.72	2299.87
391.94	2324.44
392.15	2385.88
392.36	2301.92
392.58	2297.82
392.79	2220.00
393.00	2414.56
393.22	2342.88
393.43	2379.74
393.64	2453.47
393.85	2396.12
394.07	2389.98
394.28	2439.13
394.49	2467.80
394.71	2412.51
394.92	2439.13
395.13	2299.87
395.35	2371.55
395.56	2424.80
395.77	2478.04
395.98	2426.84
396.20	2475.99
396.41	2596.82
396.62	2582.49
396.84	2553.82
397.05	2566.10
397.26	2529.24
397.47	2582.49
397.69	2453.47
397.90	2543.58
398.11	2541.53
398.32	2574.30
398.54	2551.77
398.75	2637.78
398.96	2582.49
399.18	2758.61
399.39	2617.30
399.60	2740.18
399.81	2615.26
400.03	2648.02
400.24	2809.81
400.45	2693.08
400.66	2731.99
400.88	2621.40
401.09	2760.66
401.30	2791.38
401.51	2699.22
401.73	2770.90
401.94	2779.09
402.15	2725.85
402.36	2789.33
402.58	2813.91
402.79	2750.42
403.00	2797.53
403.21	2783.19
403.43	2818.00
403.64	2910.16
403.85	2734.04
404.06	2826.20
404.27	2856.92
404.49	2713.56
404.70	2801.62
404.91	2944.98
405.12	2811.86
405.34	2981.84
405.55	2987.99
405.76	2820.05
405.97	2904.02
406.19	2938.84
406.40	2951.12
406.61	2867.16
406.82	2998.23
407.03	2899.92
407.25	2967.51
407.46	3065.81
407.67	3026.90
407.88	2992.08
408.09	2934.74
408.31	3008.47
408.52	3094.48
408.73	3053.52
408.94	3045.33
409.15	3008.47
409.37	3055.57
409.58	3024.85
409.79	3121.10
410.00	3096.53
410.21	3092.43
410.43	3084.24
410.64	3117.01
410.85	3018.71
411.06	3137.49
411.27	3209.17
411.48	3168.21
411.70	3092.43
411.91	3215.31
412.12	3246.03
412.33	3192.78
412.54	3299.28
412.76	3291.09
412.97	3194.83
413.18	3162.06
413.39	3157.97
413.60	3176.40
413.81	3209.17
414.03	3172.30
414.24	3299.28
414.45	3397.58
414.66	3172.30
414.87	3409.87
415.08	3393.48
415.30	3332.05
415.51	3385.29
415.72	3321.81
415.93	3411.92
416.14	3467.21
416.35	3440.59
416.56	3391.44
416.78	3485.64
416.99	3362.76
417.20	3487.69
417.41	3510.22
417.62	3413.96
417.83	3485.64
418.04	3483.59
418.26	3524.55
418.47	3432.40
418.68	3590.09
418.89	3493.83
419.10	3555.27
419.31	3571.66
419.52	3665.86
419.73	3733.45
419.95	3641.29
420.16	3551.18
420.37	3610.57
420.58	3616.71
420.79	3569.61
421.00	3694.54
421.21	3821.51
421.42	3801.03
421.63	3774.41
421.85	3760.07
422.06	3831.75
422.27	3872.71
422.48	3794.89
422.69	3774.41
422.90	3821.51
423.11	3874.76
423.32	3864.52
423.53	3872.71
423.75	3868.61
423.96	4083.65
424.17	3911.62
424.38	4118.47
424.59	4073.41
424.80	4192.19
425.01	4032.45
425.22	3919.81
425.43	3844.04
425.64	4071.36
425.85	3938.24
426.06	4161.47
426.28	4169.66
426.49	4028.35
426.70	4194.24
426.91	4157.38
427.12	4388.80
427.33	4278.21
427.54	4227.01
427.75	4210.62
427.96	4343.74
428.17	4229.06
428.38	4319.17
428.59	4321.21
428.80	4331.45
429.01	4517.82
429.23	4399.04
429.44	4569.02
429.65	4523.96
429.86	4675.51
430.07	4472.76
430.28	4483.00
430.49	4562.87
430.70	4562.87
430.91	4671.42
431.12	4583.35
431.33	4663.22
431.54	4775.86
431.75	4609.98
431.96	4706.23
432.17	4616.12
432.38	4642.75
432.59	5005.24
432.80	4751.29
433.01	4827.06
433.22	5007.28
433.43	4779.96
433.64	4741.05
433.85	4757.43
434.06	4925.36
434.27	4919.22
434.49	4890.55
434.70	4970.42
434.91	4868.02
435.12	5060.53
435.33	5095.35
435.54	5056.43
435.75	4841.40
435.96	4960.18
436.17	5011.38
436.38	5121.97
436.59	5124.02
436.80	5109.68
437.01	5271.47
437.22	5328.81
437.43	5218.22
437.64	5056.43
437.85	5201.84
438.06	5175.22
438.27	5119.92
438.48	5306.29
438.69	5195.70
438.90	5253.04
439.11	5181.36
439.32	5435.31
439.53	5304.24
439.74	5416.88
439.95	5560.24
440.16	5437.36
440.37	5451.69
440.57	5353.39
440.78	5463.98
440.99	5494.70
441.20	5593.00
441.41	5470.12
441.62	5357.49
441.83	5476.27
442.04	5543.85
442.25	5611.43
442.46	5771.18
442.67	5642.15
442.88	6039.46
443.09	5509.04
443.30	5488.56
443.51	5805.99
443.72	5969.83
443.93	5578.67
444.14	5945.25
444.35	5603.24
444.56	5818.28
444.77	5883.81
444.98	5840.81
445.19	5855.14
445.40	5887.91
445.61	5943.21
445.81	6061.99
446.02	6057.89
446.23	5951.40
446.44	5914.53
446.65	6023.08
446.86	5912.49
447.07	6023.08
447.28	6111.14
447.49	6170.53
447.70	5978.02
447.91	6231.97
448.12	6021.03
448.33	6234.02
448.54	6260.64
448.74	6123.43
448.95	6268.83
449.16	6195.11
449.37	6356.90
449.58	6172.58
449.79	6373.28
450.00	6174.63
450.21	6522.78
450.42	6385.57
450.63	6557.60
450.84	6494.11
451.05	6516.64
451.25	6553.50
451.46	6502.30
451.67	6606.75
451.88	6666.14
452.09	6537.12
452.30	6621.08
452.51	6541.21
452.72	6836.12
452.93	6875.03
453.13	6662.04
453.34	6690.71
453.55	6571.93
453.76	6739.87
453.97	7131.03
454.18	6866.84
454.39	7026.58
454.60	6866.84
454.81	7028.63
455.01	7018.39
455.22	6827.93
455.43	7131.03
455.64	7262.10
455.85	7194.51
456.06	7327.63
456.27	7104.40
456.48	7147.41
456.68	7341.97
456.89	7335.82
457.10	7417.74
457.31	7368.59
457.52	7309.20
457.73	7378.83
457.94	7649.16
458.14	7497.61
458.35	7915.40
458.56	7630.73
458.77	7520.14
458.98	7614.35
459.19	7679.88
459.39	7884.68
459.60	7843.72
459.81	7663.50
460.02	7827.34
460.23	7927.69
460.44	8107.91
460.65	7886.73
460.85	7915.40
461.06	8175.49
461.27	7894.92
461.48	8159.11
461.69	8511.36
461.89	8077.19
462.10	8361.86
462.31	8228.74
462.52	8251.27
462.73	8279.94
462.94	8523.65
463.14	8390.53
463.35	8386.43
463.56	8750.97
463.77	8759.16
463.98	8554.37
464.18	8560.51
464.39	8834.94
464.60	8851.32
464.81	8929.14
465.02	8865.66
465.23	9076.60
465.43	8994.68
465.64	9267.06
465.85	9056.12
466.06	8943.48
466.27	9377.65
466.47	9422.70
466.68	9277.30
466.89	9252.72
467.10	9551.73
467.30	9254.77
467.51	9492.34
467.72	9570.16
467.93	9428.85
468.14	9594.73
468.34	9572.21
468.55	9781.10
468.76	9719.66
468.97	9660.27
469.17	9891.69
469.38	10088.29
469.59	9930.60
469.80	9920.36
470.01	9981.80
470.21	9971.56
470.42	10260.32
470.63	10327.91
470.84	10112.87
471.04	10325.86
471.25	10383.20
471.46	10528.61
471.67	10678.11
471.87	10614.62
472.08	10676.06
472.29	10981.21
472.50	10399.59
472.70	10786.65
472.91	10925.91
473.12	11040.60
473.33	11036.50
473.53	11167.57
473.74	11247.44
473.95	11126.61
474.16	11536.21
474.36	11192.15
474.57	11554.64
474.78	11638.61
474.99	11272.02
475.19	11458.39
475.40	11945.80
475.61	11839.31
475.81	12015.43
476.02	12138.31
476.23	12144.45
476.44	11994.95
476.64	12324.68
476.85	12195.65
477.06	12328.77
477.27	12511.04
477.47	12664.64
477.68	12556.10
477.89	12748.61
478.09	12764.99
478.30	12965.69
478.51	12949.31
478.71	13068.09
478.92	13053.75
479.13	13068.09
479.34	13395.76
479.54	13352.76
479.75	13383.48
479.96	13524.79
480.16	13676.34
480.37	13453.11
480.58	13721.39
480.78	14071.59
480.99	13817.65
481.20	13905.71
481.41	14182.18
481.61	14458.66
481.82	14425.89
482.03	14448.42
482.23	14346.02
482.44	14462.76
482.65	14651.17
482.85	14655.26
483.06	14663.46
483.27	14941.98
483.47	14655.26
483.68	14911.26
483.89	15077.15
484.09	15089.43
484.30	15257.37
484.51	15314.71
484.71	15605.52
484.92	15609.62
485.13	15535.89
485.33	15920.91
485.54	15675.15
485.75	15658.77
485.95	15826.70
486.16	16058.12
486.37	16285.45
486.57	16201.48
486.78	16056.08
486.98	16129.80
487.19	16348.93
487.40	16369.41
487.60	16289.54
487.81	16535.30
488.02	16437.00
488.22	16768.77
488.43	16850.69
488.64	16635.65
488.84	16772.86
489.05	16951.04
489.25	16940.80
489.46	17592.05
489.67	17241.85
489.87	17694.45
490.08	17338.10
490.29	17327.86
490.49	17725.17
490.70	17723.12
490.90	18005.74
491.11	17798.90
491.32	18210.54
491.52	17938.16
491.73	18145.00
491.94	18087.66
492.14	18165.48
492.35	18063.08
492.55	18247.40
492.76	18421.48
492.97	18271.98
493.17	18421.48
493.38	18618.08
493.58	18802.40
493.79	18613.99
494.00	18734.82
494.20	18994.91
494.41	18968.29
494.61	19128.03
494.82	19343.06
495.02	19150.56
495.23	19222.23
495.44	19238.62
495.64	19429.08
495.85	19617.49
496.05	19740.37
496.26	19441.37
496.47	19936.98
496.67	19861.20
496.88	20109.01
497.08	19791.57
497.29	20066.00
497.49	19783.38
497.70	20127.44
497.91	20362.95
498.11	20199.12
498.32	20328.14
498.52	20166.35
498.73	20399.82
498.93	20547.27
499.14	20420.30
499.34	20565.70
499.55	20643.52
499.76	20842.18
499.96	20897.47
500.17	20631.24
500.37	20944.58
500.58	20870.85
500.78	21032.64
500.99	20993.73
501.19	21341.88
501.40	21302.97
501.60	21190.33
501.81	21057.21
502.02	21345.98
502.22	21370.55
502.43	21632.69
502.63	21563.06
502.84	21548.73
503.04	21708.47
503.25	21386.94
503.45	21724.85
503.66	21806.77
503.86	21911.22
504.07	22234.80
504.27	21753.52
504.48	22011.57
504.68	22113.97
504.89	22191.79
505.09	22242.99
505.30	22304.43
505.50	22318.76
505.71	22589.10
505.91	22728.36
506.12	22433.45
506.32	22406.83
506.53	22394.54
506.73	22580.90
506.94	22886.05
507.14	22566.57
507.35	22572.71
507.55	22781.60
507.76	22947.49
507.96	22814.37
508.17	22988.45
508.37	22836.90
508.58	23010.98
508.78	22980.26
508.99	23172.77
509.19	23160.48
509.40	23391.90
509.60	23047.84
509.81	23410.33
510.01	23430.81
510.22	23391.90
510.42	23467.67
510.63	23305.88
510.83	23498.39
511.04	23221.92
511.24	23570.07
511.44	23439.00
511.65	23639.70
511.85	23430.81
512.06	23819.92
512.26	23824.02
512.47	23838.36
512.67	23727.77
512.88	24045.20
513.08	23819.92
513.29	24299.15
513.49	24096.40
513.69	24155.79
513.90	23969.43
514.10	24057.49
514.31	24442.51
514.51	24295.05
514.72	24211.09
514.92	24051.34
515.13	24073.87
515.33	24309.39
515.53	24532.62
515.74	24333.96
515.94	24305.29
516.15	24213.13
516.35	24389.26
516.56	24712.84
516.76	24319.63
516.96	24594.06
517.17	24700.55
517.37	24700.55
517.58	24712.84
517.78	24987.27
517.99	24792.71
518.19	24802.95
518.39	24981.12
518.60	25124.48
518.80	25134.72
519.01	25235.07
519.21	24882.82
519.41	25214.59
519.62	24837.76
519.82	25210.50
520.03	25288.32
520.23	25282.17
520.43	25155.20
520.64	25499.26
520.84	25636.47
521.05	25740.92
521.25	25632.38
521.45	25532.03
521.66	25710.20
521.86	25669.24
522.07	25343.61
522.27	25628.28
522.47	25841.27
522.68	25611.90
522.88	26078.83
523.08	26222.19
523.29	26175.09
523.49	26189.42
523.70	26293.87
523.90	26175.09
524.10	26461.80
524.31	26545.77
524.51	26525.29
524.71	26252.91
524.92	26840.68
525.12	26678.89
525.33	26891.88
525.53	27119.20
525.73	27000.42
525.94	26832.49
526.14	26560.11
526.34	27065.96
526.55	27139.68
526.75	27162.21
526.95	27254.37
527.16	27231.84
527.36	27049.57
527.56	27410.01
527.77	27383.39
527.97	27512.41
528.17	27219.55
528.38	27223.65
528.58	27743.83
528.78	27842.14
528.99	27598.43
529.19	27510.36
529.39	27358.81
529.60	28173.91
529.80	27965.01
530.00	27790.94
530.21	28251.73
530.41	28591.69
530.61	28139.09
530.82	28329.55
531.02	27799.13
531.22	28259.92
531.43	28274.26
531.63	28397.13
531.83	28487.25
532.04	28788.30
532.24	28503.63
532.44	29077.06
532.64	28980.81
532.85	28950.09
533.05	29040.20
533.25	29087.30
533.46	28989.00
533.66	29374.02
533.86	29062.72
534.07	29558.33
534.27	29234.75
534.47	29564.48
534.67	29376.06
534.88	29414.98
535.08	29441.60
535.28	29716.03
535.49	29804.09
535.69	29949.50
535.89	30090.80
536.09	29980.21
536.30	30133.81
536.50	29904.44
536.70	30324.27
536.91	29906.49
537.11	30150.20
537.31	30191.16
537.51	30215.73
537.72	30879.27
537.92	30445.10
538.12	30752.30
538.32	30496.30
538.53	30750.25
538.73	30805.55
538.93	30854.70
539.13	30854.70
539.34	30694.96
539.54	30709.29
539.74	31190.56
539.94	30996.01
540.15	30531.12
540.35	31139.36
540.55	31059.49
540.75	31374.88
540.96	31090.21
541.16	31557.15
541.36	30957.10
541.56	31192.61
541.77	31383.07
541.97	31516.19
542.17	31389.22
542.37	31319.59
542.58	31528.48
542.78	31491.62
542.98	31817.24
543.18	31458.85
543.38	31655.45
543.59	31800.86
543.79	31796.76
543.99	31819.29
544.19	32081.43
544.40	31882.78
544.60	32136.73
544.80	32179.73
545.00	32204.31
545.20	32132.63
545.41	32011.80
545.61	32392.72
545.81	32144.92
546.01	32450.06
546.21	32173.59
546.42	31997.46
546.62	32812.56
546.82	32339.47
547.02	32273.94
547.22	32493.07
547.43	32476.69
547.63	32685.58
547.83	33097.22
548.03	32275.99
548.23	32796.17
548.44	32443.92
548.64	32917.00
548.84	32552.46
549.04	32847.37
549.24	32632.33
549.45	32935.43
549.65	32806.41
549.85	32695.82
550.05	32751.12
550.25	32878.09
550.45	33099.27
550.66	32978.44
550.86	33043.98
551.06	33152.52
551.26	32984.58
551.46	33084.94
551.66	33330.69
551.87	32955.91
552.07	33195.53
552.27	33211.91
552.47	33269.25
552.67	33568.26
552.87	32914.95
553.07	33404.42
553.28	33334.79
553.48	33259.01
553.68	33433.09
553.88	33555.97
554.08	33371.65
554.28	33519.10
554.48	32953.87
554.69	33492.48
554.89	33232.39
555.09	33379.84
555.29	33193.48
555.49	33412.61
555.69	33406.47
555.89	33779.20
556.10	33695.23
556.30	33457.67
556.50	33625.60
556.70	33080.84
556.90	33836.54
557.10	33711.61
557.30	33535.49
557.50	33752.57
557.70	33854.97
557.91	33900.03
558.11	33934.84
558.31	33979.90
558.51	33906.17
558.71	33482.24
558.91	34158.07
559.11	33914.36
559.31	33916.41
559.51	33949.18
559.72	33644.03
559.92	33988.09
560.12	33867.26
560.32	34178.55
560.52	33928.70
560.72	33994.23
560.92	33558.02
561.12	34065.91
561.32	34145.78
561.52	33648.13
561.72	33981.95
561.93	33701.37
562.13	33945.08
562.33	33670.65
562.53	34321.91
562.73	33867.26
562.93	33879.55
563.13	34174.45
563.33	34049.53
563.53	34401.78
563.73	33967.61
563.93	34092.54
564.13	34344.44
564.33	34280.95
564.53	33945.08
564.74	34291.19
564.94	34389.49
565.14	34160.12
565.34	33748.48
565.54	34188.79
565.74	34291.19
565.94	34293.24
566.14	34223.61
566.34	34489.84
566.54	34522.61
566.74	34014.71
566.94	34450.93
567.14	34498.03
567.34	33914.36
567.54	34029.05
567.74	34176.50
567.94	34364.92
568.14	34489.84
568.34	34166.26
568.54	34373.11
568.74	34616.82
568.94	34268.66
569.14	34555.38
569.34	34604.53
569.54	34268.66
569.75	34113.02
569.95	34491.89
570.15	34471.41
570.35	34577.90
570.55	34491.89
570.75	34530.80
570.95	34567.66
571.15	34416.11
571.35	34598.38
571.55	34979.31
571.75	34561.52
571.95	34874.86
572.15	34899.44
572.35	34958.83
572.55	34569.71
572.75	34389.49
572.95	34561.52
573.15	34749.93
573.35	34272.76
573.55	34631.15
573.75	34395.64
573.95	34833.90
574.15	35087.85
574.35	34762.22
574.55	34993.64
574.75	34954.73
574.95	34764.27
575.15	34506.23
575.34	34571.76
575.54	35130.86
575.74	34964.97
575.94	35044.84
576.14	34528.75
576.34	35370.47
576.54	35278.31
576.74	35196.39
576.94	34971.11
577.14	35112.42
577.34	35251.69
577.54	35059.18
577.74	35114.47
577.94	35333.60
578.14	35259.88
578.34	35223.01
578.54	34852.33
578.74	35100.14
578.94	35507.68
579.14	35073.51
579.34	34962.92
579.54	35075.56
579.74	35460.58
579.94	35366.37
580.13	35775.97
580.33	35470.82
580.53	35235.30
580.73	35190.25
580.93	35378.66
581.13	35538.40
581.33	35829.21
581.53	35419.62
581.73	35583.46
581.93	35778.01
582.13	35470.82
582.33	35825.12
582.53	35681.76
582.73	35939.80
582.92	36097.50
583.12	35968.48
583.32	35931.61
583.52	35702.24
583.72	35966.43
583.92	35433.96
584.12	35900.89
584.32	36308.44
584.52	36066.78
584.72	36058.59
584.92	35732.96
585.11	36294.10
585.31	35823.07
585.51	36122.07
585.71	35839.45
585.91	36148.70
586.11	35683.81
586.31	35837.41
586.51	36038.11
586.71	35878.36
586.91	36181.46
587.10	36330.97
587.30	36236.76
587.50	36236.76
587.70	36304.34
587.90	36509.14
588.10	36201.94
588.30	35993.05
588.50	36251.09
588.69	36433.36
588.89	36187.61
589.09	36638.16
589.29	36484.56
589.49	36703.70
589.69	36081.11
589.89	36439.51
590.08	36636.11
590.28	36519.38
590.48	36480.47
590.68	36226.52
590.88	36380.12
591.08	36681.17
591.28	36328.92
591.47	36476.37
591.67	36453.84
591.87	36228.57
592.07	36429.27
592.27	36525.52
592.47	36668.88
592.67	36355.54
592.86	36738.51
593.06	36791.76
593.26	36662.74
593.46	36529.62
593.66	36566.48
593.86	36439.51
594.05	36681.17
594.25	36888.01
594.45	36365.78
594.65	36408.79
594.85	36347.35
595.05	36769.23
595.24	36634.06
595.44	36781.52
595.64	36607.44
595.84	36744.66
596.04	36627.92
596.23	36617.68
596.43	36996.56
596.63	36414.93
596.83	36816.33
597.03	36814.29
597.22	37326.28
597.42	36883.92
597.62	37105.10
597.82	36718.03
598.02	36883.92
598.21	37105.10
598.41	36736.46
598.61	36916.68
598.81	36818.38
599.01	36951.50
599.20	37170.63
599.40	36808.14
599.60	37033.42
599.80	37383.62
600.00	37101.00
600.19	37623.23
600.39	37033.42
600.59	37344.71
600.79	37406.15
600.98	37127.63
601.18	37533.12
601.38	37598.66
601.58	37324.23
601.78	37213.64
601.97	37324.23
602.17	37375.43
602.37	37406.15
602.57	37375.43
602.76	37643.71
602.96	37250.50
603.16	37191.11
603.36	37352.90
603.55	37604.80
603.75	37678.53
603.95	37565.89
604.15	37576.13
604.34	37615.04
604.54	37240.26
604.74	37707.20
604.94	37801.41
605.13	37817.79
605.33	37789.12
605.53	37127.63
605.73	37817.79
605.92	37539.27
606.12	37705.15
606.32	37529.03
606.52	37709.25
606.71	37324.23
606.91	37868.99
607.11	37320.13
607.30	37891.52
607.50	37856.70
607.70	38069.69
607.90	37633.47
608.09	37731.78
608.29	37850.56
608.49	37832.13
608.68	37649.86
608.88	37946.81
609.08	37795.26
609.28	38024.64
609.47	37701.06
609.67	38153.66
609.87	37858.75
610.06	38170.04
610.26	37721.54
610.46	37719.49
610.66	37727.68
610.85	37815.74
611.05	37737.92
611.25	37660.10
611.44	37952.96
611.64	37981.63
611.84	37684.67
612.03	37877.18
612.23	37938.62
612.43	37668.29
612.62	38028.73
612.82	38438.33
613.02	37766.59
613.21	38245.82
613.41	37643.71
613.61	37858.75
613.80	37682.62
614.00	37817.79
614.20	37809.60
614.39	37967.29
614.59	38167.99
614.79	37967.29
614.98	37746.11
615.18	37692.86
615.38	37881.28
615.57	37406.15
615.77	37752.26
615.97	37811.65
616.16	38043.07
616.36	37465.54
616.56	37647.81
616.75	37651.91
616.95	37785.02
617.15	37912.00
617.34	37428.68
617.54	37377.48
617.74	37778.88
617.93	37639.62
618.13	37377.48
618.32	37520.84
618.52	37713.34
618.72	37385.67
618.91	37316.04
619.11	37387.72
619.31	37359.05
619.50	37088.71
619.70	37721.54
619.90	37359.05
620.09	37537.22
620.29	37653.95
620.48	37115.34
620.68	37631.43
620.88	36701.65
621.07	37438.92
621.27	37221.83
621.46	37105.10
621.66	37123.53
621.86	37074.38
622.05	36875.73
622.25	37373.38
622.44	37025.23
622.64	37055.95
622.84	37322.18
623.03	37180.87
623.23	37359.05
623.42	37369.29
623.62	37031.37
623.82	37588.42
624.01	36955.60
624.21	37064.14
624.40	36908.49
624.60	36840.91
624.80	37098.95
624.99	36900.30
625.19	36842.96
625.38	37064.14
625.58	37311.94
625.77	36906.44
625.97	36724.18
626.17	36433.36
626.36	37146.06
626.56	36881.87
626.75	36648.40
626.95	36715.98
627.14	36888.01
627.34	36842.96
627.54	36713.94
627.73	36718.03
627.93	36826.57
628.12	36427.22
628.32	36427.22
628.51	36662.74
628.71	36550.10
628.90	36679.12
629.10	36455.89
629.30	36365.78
629.49	36384.21
629.69	36384.21
629.88	36261.33
630.08	36908.49
630.27	36445.65
630.47	36388.31
630.66	36353.49
630.86	36466.13
631.05	36206.04
631.25	36926.92
631.44	36394.45
631.64	36644.30
631.84	36447.70
632.03	36871.63
632.23	36113.88
632.42	36615.63
632.62	36455.89
632.81	36199.90
633.01	36527.57
633.20	36554.19
633.40	36326.87
633.59	36427.22
633.79	35988.95
633.98	36560.34
634.18	36574.67
634.37	36449.75
634.57	36543.95
634.76	36330.97
634.96	35855.84
635.15	36371.92
635.35	35892.70
635.54	36257.24
635.74	36363.73
635.93	35843.55
636.13	36281.81
636.32	36464.08
636.52	35802.59
636.71	36210.14
636.91	36093.40
637.10	36312.53
637.30	36447.70
637.49	36380.12
637.69	36343.25
637.88	36339.16
638.08	35929.56
638.27	36167.13
638.46	35970.52
638.66	35757.53
638.85	36240.86
639.05	36117.98
639.24	36003.29
639.44	35868.12
639.63	36009.43
639.83	36044.25
640.02	36013.53
640.22	36040.15
640.41	36066.78
640.61	35671.52
640.80	36134.36
640.99	35769.82
641.19	35970.52
641.38	36054.49
641.58	36023.77
641.77	36091.35
641.97	35790.30
642.16	35562.98
642.36	36163.03
642.55	36363.73
642.74	36003.29
642.94	36267.48
643.13	36052.44
643.33	35837.41
643.52	35921.37
643.72	36097.50
643.91	35788.25
644.10	35648.99
644.30	36093.40
644.49	35698.14
644.69	35937.76
644.88	35812.83
645.08	35597.79
645.27	35970.52
645.46	35714.53
645.66	35954.14
645.85	36044.25
646.05	36171.22
646.24	35931.61
646.43	35845.60
646.63	35904.99
646.82	35853.79
647.02	35927.52
647.21	35952.09
647.40	35481.06
647.60	35939.80
647.79	35677.66
647.99	35796.45
648.18	35483.11
648.37	36091.35
648.57	35962.33
648.76	35679.71
648.96	35513.83
649.15	35714.53
649.34	36165.08
649.54	35679.71
649.73	35526.11
649.92	35624.42
650.12	35454.44
650.31	35778.01
650.51	35747.29
650.70	35763.68
650.89	35923.42
651.09	36187.61
651.28	35700.19
651.47	35911.13
651.67	35798.49
651.86	36015.58
652.06	35556.83
652.25	35788.25
652.44	36111.83
652.64	35558.88
652.83	35427.81
653.02	35386.85
653.22	35419.62
653.41	35577.31
653.60	35278.31
653.80	35554.79
653.99	35608.03
654.18	35335.65
654.38	35636.70
654.57	35421.67
654.76	35790.30
654.96	35493.35
655.15	35397.09
655.34	35296.74
655.54	34881.00
655.73	35522.02
655.92	35321.32
656.12	35341.80
656.31	35745.25
656.50	35063.27
656.70	35411.43
656.89	35724.77
657.08	35943.90
657.28	35593.70
657.47	35444.20
657.66	35302.89
657.86	35302.89
658.05	35497.44
658.24	35194.34
658.43	35016.17
658.63	35388.90
658.82	35216.87
659.01	35190.25
659.21	35460.58
659.40	35485.15
659.59	35423.72
659.79	35388.90
659.98	35423.72
660.17	35147.24
660.36	34921.96
660.56	35190.25
660.75	35440.10
660.94	34872.81
661.14	35255.78
661.33	34860.52
661.52	34756.08
661.71	35407.33
661.91	34950.63
662.10	34688.49
662.29	35552.74
662.49	35010.03
662.68	35286.50
662.87	35024.36
663.06	35288.55
663.26	35143.14
663.45	35104.23
663.64	34751.98
663.83	35368.42
664.03	35165.67
664.22	34606.58
664.41	34987.50
664.60	35075.56
664.80	34797.04
664.99	34659.82
665.18	35108.33
665.37	34801.13
665.57	35024.36
665.76	34717.17
665.95	35001.83
666.14	34885.10
666.34	34778.61
666.53	34625.01
666.72	34557.42
666.91	34354.68
667.11	34637.30
667.30	34725.36
667.49	34616.82
667.68	34657.78
667.87	34698.73
668.07	34604.53
668.26	34565.62
668.45	34739.69
668.64	34409.97
668.84	34846.19
669.03	34481.65
669.22	34909.68
669.41	34559.47
669.60	34749.93
669.80	34287.09
669.99	34524.66
670.18	34051.58
670.37	34121.21
670.57	34665.97
670.76	34467.31
670.95	34328.05
671.14	34262.52
671.33	34196.98
671.53	34369.01
671.72	34340.34
671.91	34268.66
672.10	33994.23
672.29	34000.38
672.48	34102.78
672.68	34317.81
672.87	34125.30
673.06	34246.13
673.25	34276.85
673.44	34221.56
673.64	33596.93
673.83	33961.47
674.02	34002.43
674.21	33857.02
674.40	34338.29
674.59	34063.86
674.79	33787.39
674.98	33750.52
675.17	34096.63
675.36	34088.44
675.55	34078.20
675.74	33811.96
675.94	33662.46
676.13	33596.93
676.32	34063.86
676.51	34102.78
676.70	33717.76
676.89	33668.61
677.08	33629.69
677.28	33861.12
677.47	34006.52
677.66	33961.47
677.85	34125.30
678.04	33801.72
678.23	33687.04
678.42	33951.23
678.62	33345.03
678.81	33859.07
679.00	33361.41
679.19	33992.19
679.38	33650.17
679.57	33545.73
679.76	33555.97
679.96	33959.42
680.15	33615.36
680.34	33467.91
680.53	33154.57
680.72	33252.87
680.91	33388.03
681.10	33445.38
681.29	33138.18
681.48	33324.55
681.68	33142.28
681.87	33263.11
682.06	33089.03
682.25	32886.28
682.44	33136.13
682.63	33089.03
682.82	32663.05
683.01	32656.91
683.20	32753.16
683.39	33191.43
683.59	32577.04
683.78	32994.82
683.97	32982.54
684.16	32685.58
684.35	32859.66
684.54	32927.24
684.73	32757.26
684.92	32826.89
685.11	32699.92
685.30	32611.85
685.49	32792.08
685.69	32699.92
685.88	32706.06
686.07	32488.98
686.26	32724.49
686.45	32511.50
686.64	32562.70
686.83	32564.75
687.02	32892.43
687.21	32065.05
687.40	32552.46
687.59	32230.93
687.78	32355.86
687.97	32544.27
688.16	32749.07
688.35	32318.99
688.54	32239.12
688.74	32048.66
688.93	32441.87
689.12	32228.88
689.31	32310.80
689.50	32306.71
689.69	32155.16
689.88	31962.65
690.07	32247.32
690.26	31776.28
690.45	32196.12
690.64	32044.57
690.83	32106.01
691.02	31733.28
691.21	32116.25
691.40	31794.71
691.59	32167.45
691.78	32149.01
691.97	32161.30
692.16	32151.06
692.35	32179.73
692.54	31684.12
692.73	32087.57
692.92	31624.73
693.11	31751.71
693.30	31823.39
693.49	31565.34
693.68	31331.87
693.87	31579.68
694.06	31643.17
694.25	31557.15
694.44	31340.07
694.63	31462.94
694.82	31772.19
695.01	31131.17
695.20	31278.63
695.39	31186.47
695.58	31151.65
695.77	31079.97
695.96	31071.78
696.15	31122.98
696.34	30985.77
696.53	31145.51
696.72	31221.28
696.91	31323.68
697.10	31069.73
697.29	30957.10
697.48	30864.94
697.67	31092.26
697.86	30500.40
698.05	30697.00
698.24	30572.08
698.43	30547.50
698.62	30610.99
698.81	30744.11
699.00	30967.34
699.19	30799.40
699.38	30934.57
699.57	30527.02
699.76	30733.87
699.95	30682.67
700.14	30465.58
700.32	30686.76
700.51	30395.95
700.70	30666.28
700.89	30522.93
701.08	30629.42
701.27	30311.99
701.46	30723.63
701.65	30254.64
701.84	30381.62
702.03	30518.83
702.22	30252.59
702.41	30228.02
702.60	30578.22
702.79	30273.07
702.98	30027.32
703.17	30041.65
703.35	30025.27
703.54	29662.78
703.73	30463.54
703.92	30158.39
704.11	29990.45
704.30	29869.62
704.49	30281.27
704.68	29666.88
704.87	30064.18
705.06	29539.90
705.25	29896.25
705.43	29550.14
705.62	30148.15
705.81	29781.56
706.00	29931.06
706.19	29460.03
706.38	29578.81
706.57	29404.74
706.76	29666.88
706.95	29427.26
707.14	29324.86
707.32	29462.08
707.51	29218.37
707.70	29556.28
707.89	29552.19
708.08	28999.24
708.27	29212.23
708.46	29136.45
708.65	29025.86
708.84	29269.57
709.02	29283.91
709.21	29220.42
709.40	29177.41
709.59	28970.57
709.78	29038.15
709.97	29345.34
710.16	28941.89
710.34	28814.92
710.53	29163.08
710.72	28915.27
710.91	28739.15
711.10	29064.77
711.29	28814.92
711.48	28503.63
711.66	28767.82
711.85	28515.92
712.04	28565.07
712.23	28563.02
712.42	28497.49
712.61	28735.05
712.80	28536.40
712.98	28720.71
713.17	28608.08
713.36	28595.79
713.55	28530.25
713.74	28368.46
713.93	28423.76
714.11	28268.11
714.30	28120.66
714.49	28266.06
714.68	28018.26
714.87	28376.66
715.06	28481.10
715.24	28042.84
715.43	27903.57
715.62	27887.19
715.81	27831.90
716.00	28085.84
716.18	27883.09
716.37	27919.96
716.56	27831.90
716.75	27936.34
716.94	27854.42
717.12	27721.30
717.31	27922.01
717.50	27649.63
717.69	27561.56
717.88	27399.77
718.06	27758.17
718.25	27852.38
718.44	27663.96
718.63	27516.51
718.82	27283.04
719.00	27532.89
719.19	27573.85
719.38	27340.38
719.57	27686.49
719.76	27309.66
719.94	26832.49
720.13	27104.87
720.32	27237.98
720.51	27260.51
720.69	26926.69
720.88	26859.11
721.07	27115.11
721.26	26629.74
721.44	26750.57
721.63	26627.69
721.82	26648.17
722.01	26527.34
722.20	26715.75
722.38	26654.31
722.57	26439.28
722.76	26412.65
722.95	26564.20
723.13	26480.24
723.32	26414.70
723.51	26058.35
723.70	26209.90
723.88	26248.82
724.07	26275.44
724.26	26422.89
724.44	26265.20
724.63	26363.50
724.82	26107.51
725.01	26211.95
725.19	25951.86
725.38	26025.59
725.57	25656.95
725.76	25826.93
725.94	26130.03
726.13	25771.64
726.32	25955.96
726.51	25681.53
726.69	26160.75
726.88	25990.77
727.07	25984.63
727.25	25908.85
727.44	25749.11
727.63	25857.65
727.82	25728.63
728.00	25869.94
728.19	25724.54
728.38	25871.99
728.56	25452.16
728.75	25941.62
728.94	25640.57
729.12	25206.40
729.31	25564.79
729.50	25636.47
729.69	25816.69
729.87	25714.30
730.06	25427.58
730.25	25456.25
730.43	25527.93
730.62	25437.82
730.81	25673.34
730.99	25659.00
731.18	25548.41
731.37	25448.06
731.55	25456.25
731.74	25591.42
731.93	25636.47
732.11	25386.62
732.30	25577.08
732.49	25106.05
732.67	25263.74
732.86	25116.29
733.05	24956.55
733.23	25052.80
733.42	25187.97
733.61	24811.14
733.79	25065.09
733.98	25177.73
734.17	24977.03
734.35	24903.30
734.54	24954.50
734.73	25085.57
734.91	25108.10
735.10	24893.06
735.29	25040.51
735.47	24927.88
735.66	24950.40
735.84	24802.95
736.03	24661.64
736.22	24974.98
736.40	24596.10
736.59	24819.33
736.78	24866.44
736.96	24602.25
737.15	24987.27
737.33	24727.17
737.52	24639.11
737.71	24647.30
737.89	24434.32
738.08	24559.24
738.27	24651.40
738.45	24592.01
738.64	24497.80
738.82	24450.70
739.01	24419.98
739.20	24254.09
739.38	24288.91
739.57	24440.46
739.75	24544.91
739.94	24178.32
740.13	24467.08
740.31	24057.49
740.50	24080.02
740.68	24264.33
740.87	24213.13
741.06	23905.94
741.24	24170.13
741.43	24037.01
741.61	23938.71
741.80	23875.22
741.99	23858.84
742.17	23807.64
742.36	24067.73
742.54	23709.33
742.73	23867.03
742.91	23930.51
743.10	24077.97
743.29	23717.53
743.47	23641.75
743.66	23912.08
743.84	23733.91
744.03	23799.44
744.21	23787.16
744.40	23813.78
744.59	23633.56
744.77	23617.18
744.96	23752.34
745.14	23733.91
745.33	23512.73
745.51	23668.37
745.70	23361.18
745.88	23549.59
746.07	23508.63
746.26	23359.13
746.44	23475.87
746.63	23430.81
746.81	23348.89
747.00	23273.12
747.18	23424.67
747.37	23602.84
747.55	23479.96
747.74	23518.87
747.92	23287.45
748.11	23340.70
748.29	23518.87
748.48	23154.33
748.66	23455.39
748.85	22972.07
749.03	23021.22
749.22	23287.45
749.41	23223.97
749.59	23199.39
749.78	22845.09
749.96	23013.02
750.15	23142.05
750.33	23066.27
750.52	23127.71
750.70	22902.43
750.89	22695.59
751.07	22646.44
751.26	22863.52
751.44	22906.53
751.63	22851.24
751.81	22548.14
752.00	22922.91
752.18	22795.94
752.37	22664.87
752.55	22476.46
752.74	22736.55
752.92	22554.28
753.10	22615.72
753.29	22650.53
753.47	22230.70
753.66	22120.11
753.84	22642.34
754.03	22505.13
754.21	22310.57
754.40	22689.45
754.58	22523.56
754.77	22390.44
754.95	22173.36
755.14	22474.41
755.32	22429.35
755.51	22068.91
755.69	22367.91
755.88	22312.62
756.06	22496.94
756.24	21980.85
756.43	22220.46
756.61	22337.20
756.80	22017.71
756.98	21941.94
757.17	22079.15
757.35	22206.13
757.54	22005.42
757.72	21939.89
757.90	21857.97
758.09	21841.59
758.27	21884.59
758.46	21870.26
758.64	22150.83
758.83	22134.45
759.01	21720.76
759.19	21853.87
759.38	21716.66
759.56	21851.83
759.75	21753.52
759.93	21911.22
760.12	21712.56
760.30	21532.34
760.48	21544.63
760.67	21714.61
760.85	21767.86
761.04	21759.67
761.22	21536.44
761.40	21687.99
761.59	21544.63
761.77	21409.47
761.96	21176.00
762.14	21302.97
762.32	21468.86
762.51	21186.24
762.69	21376.70
762.88	21237.44
763.06	21440.18
763.24	21638.84
763.43	21386.94
763.61	21006.02
763.80	21124.80
763.98	21112.51
764.16	21173.95
764.35	21096.13
764.53	20899.52
764.72	20758.21
764.90	20813.51
765.08	20967.10
765.27	21108.41
765.45	21122.75
765.63	20702.92
765.82	21051.07
766.00	20825.79
766.18	20774.60
766.37	20709.06
766.55	20836.03
766.74	20747.97
766.92	20747.97
767.10	20600.52
767.29	20588.23
767.47	20291.27
767.65	20831.94
767.84	20500.17
768.02	20561.61
768.20	20465.35
768.39	20362.95
768.57	20551.37
768.75	20410.06
768.94	20299.47
769.12	20354.76
769.30	20133.58
769.49	19951.31
769.67	20258.51
769.85	20350.67
770.04	20211.40
770.22	19928.78
770.40	19848.91
770.59	20037.33
770.77	20084.43
770.95	20240.08
771.14	20045.52
771.32	19791.57
771.50	19746.51
771.69	20086.48
771.87	19967.70
772.05	19787.47
772.24	19734.23
772.42	19971.79
772.60	19810.00
772.78	19556.05
772.97	19551.96
773.15	19707.60
773.33	19441.37
773.52	19744.47
773.70	19756.75
773.88	19785.43
774.07	19799.76
774.25	19685.08
774.43	19658.45
774.61	19756.75
774.80	20006.61
774.98	19779.28
775.16	19891.92
775.34	19840.72
775.53	19564.25
775.71	19658.45
775.89	19769.04
776.08	19500.76
776.26	19642.07
776.44	19410.65
776.62	19732.18
776.81	19629.78
776.99	19928.78
777.17	19400.41
777.35	19621.59
777.54	19936.98
777.72	19971.79
777.90	19797.71
778.08	19893.97
778.27	19592.92
778.45	20057.81
778.63	20090.57
778.81	19742.42
779.00	20074.19
779.18	19898.06
779.36	20018.89
779.54	19773.14
779.73	19838.67
779.91	19930.83
780.09	19740.37
780.27	20149.96
780.46	19828.43
780.64	20043.47
780.82	19928.78
781.00	19918.54
781.19	19965.65
781.37	19678.93
781.55	19924.69
781.73	19799.76
781.91	19740.37
782.10	19783.38
782.28	20049.61
782.46	19994.32
782.64	20176.59
782.82	19607.25
783.01	20035.28
783.19	19781.33
783.37	19920.59
783.55	20063.95
783.74	19771.09
783.92	19601.11
784.10	20078.29
784.28	20082.38
784.46	19898.06
784.64	19977.94
784.83	19904.21
785.01	19955.41
785.19	19678.93
785.37	19832.53
785.55	19955.41
785.74	19543.77
785.92	19695.32
786.10	19609.30
786.28	19584.73
786.46	19623.64
786.64	19605.20
786.83	19255.00
787.01	19494.61
787.19	19441.37
787.37	19683.03
787.55	19701.46
787.74	19564.25
787.92	19558.10
788.10	19410.65
788.28	19408.60
788.46	19519.19
788.64	19017.44
788.82	19392.22
789.01	19338.97
789.19	19105.50
789.37	19461.85
789.55	19369.69
789.73	19392.22
789.91	19121.88
790.09	19228.38
790.28	19091.16
790.46	19001.05
790.64	19273.43
790.82	18853.60
791.00	19007.20
791.18	19191.52
791.36	18972.38
791.55	18949.85
791.73	18706.15
791.91	18652.90
792.09	18788.07
792.27	18790.11
792.45	18865.89
792.63	18812.64
792.81	18865.89
793.00	18552.55
793.18	18718.43
793.36	18685.67
793.54	18581.22
793.72	18636.52
793.90	18470.63
794.08	18271.98
794.26	18415.34
794.44	18128.62
794.62	18448.10
794.81	18525.93
794.99	18345.70
795.17	18163.43
795.35	18183.91
795.53	18075.37
795.71	18220.78
795.89	17938.16
796.07	17825.52
796.25	18028.27
796.43	17946.35
796.61	17987.31
796.80	17639.15
796.98	17610.48
797.16	17907.44
797.34	17747.70
797.52	17520.37
797.70	17827.57
797.88	17403.64
798.06	17553.14
798.24	17762.03
798.42	17440.50
798.60	17452.79
798.78	17342.20
798.96	17397.49
799.14	17299.19
799.32	17227.51
799.51	17170.17
799.69	17360.63
799.87	17311.48
800.05	17073.92
800.23	17016.57
800.41	17051.39
800.59	17190.65
800.77	17098.49
800.95	17032.96
801.13	17073.92
801.31	16803.58
801.49	16905.98
801.67	16817.92
801.85	16760.58
802.03	16738.05
802.21	16539.40
802.39	16506.63
802.57	16660.23
802.75	16447.24
802.93	16475.91
803.11	16359.17
803.29	16359.17
803.47	16420.61
803.65	16252.68
803.83	16482.05
804.01	16269.06
804.19	16324.36
804.37	16090.89
804.55	15951.63
804.73	16209.67
804.91	16219.91
805.09	16105.23
805.27	16021.26
805.45	16051.98
805.63	16058.12
805.81	16008.97
805.99	15974.16
806.17	16058.12
806.35	16086.79
806.53	15679.25
806.71	15771.41
806.89	15773.46
807.07	15712.02
807.25	15761.17
807.43	15593.23
807.61	15820.56
807.79	15417.11
807.97	15511.32
808.15	15392.53
808.33	15654.67
808.51	15216.41
808.69	15505.17
808.87	15333.14
809.05	15423.25
809.23	15329.05
809.41	15355.67
809.59	15034.14
809.77	15394.58
809.95	15009.56
810.13	15167.26
810.31	15015.71
810.49	15202.07
810.67	15025.95
810.84	15130.39
811.02	15077.15
811.20	14913.31
811.38	15030.04
811.56	14808.86
811.74	14860.06
811.92	14845.73
812.10	14882.59
812.28	14903.07
812.46	14833.44
812.64	14778.14
812.82	14728.99
813.00	14751.52
813.18	14812.96
813.36	14728.99
813.53	14653.22
813.71	14473.00
813.89	14716.70
814.07	14559.01
814.25	14735.14
814.43	14421.80
814.61	14468.90
814.79	14356.26
814.97	14229.29
815.15	14350.12
815.33	14171.94
815.50	14126.89
815.68	14182.18
815.86	14298.92
816.04	14139.18
816.22	14155.56
816.40	14126.89
816.58	14165.80
816.76	14038.83
816.94	14036.78
817.11	13965.10
817.29	13928.24
817.47	13852.46
817.65	13852.46
817.83	13940.52
818.01	13696.82
818.19	13758.25
818.37	13928.24
818.54	13627.18
818.72	13774.64
818.90	13801.26
819.08	13635.38
819.26	13852.46
819.44	13647.66
819.62	13659.95
819.80	13754.16
819.97	13602.61
820.15	13598.51
820.33	13446.96
820.51	13649.71
820.69	13506.35
820.87	13492.02
821.05	13446.96
821.22	13457.20
821.40	13365.04
821.58	13340.47
821.76	13489.97
821.94	13299.51
822.12	13459.25
822.29	13246.26
822.47	13279.03
822.65	13483.83
822.83	13451.06
823.01	13209.40
823.19	13137.72
823.36	13002.55
823.54	13004.60
823.72	13121.34
823.90	12961.59
824.08	13037.37
824.25	13215.54
824.43	12953.40
824.61	13074.23
824.79	12971.83
824.97	13006.65
825.15	12885.82
825.32	12658.49
825.50	12820.28
825.68	12709.69
825.86	12900.16
826.04	12822.33
826.21	12826.43
826.39	12646.21
826.57	12672.83
826.75	12656.45
826.93	12744.51
827.10	12627.78
827.28	12613.44
827.46	12449.60
827.64	12713.79
827.81	12392.26
827.99	12707.65
828.17	12580.67
828.35	12523.33
828.53	12556.10
828.70	12521.28
828.88	12406.59
829.06	12494.66
829.24	12601.15
829.41	12404.55
829.59	12410.69
829.77	12373.83
829.95	12459.84
830.12	12289.86
830.30	12361.54
830.48	12353.35
830.66	12377.92
830.84	12429.12
831.01	12003.14
831.19	12187.46
831.37	12156.74
831.55	12007.24
831.72	11994.95
831.90	12029.77
832.08	12193.61
832.25	12076.87
832.43	12109.64
832.61	11849.55
832.79	11679.57
832.96	11937.61
833.14	12117.83
833.32	12052.30
833.50	11988.81
833.67	11962.19
833.85	11906.89
834.03	11784.01
834.20	11796.30
834.38	11865.93
834.56	11986.76
834.74	11902.79
834.91	11695.95
835.09	11710.29
835.27	11872.07
835.44	11450.19
835.62	11587.41
835.80	11575.12
835.98	11675.47
836.15	11618.13
836.33	11630.41
836.51	11534.16
836.68	11581.26
836.86	11577.17
837.04	11628.37
837.21	11558.74
837.39	11470.67
837.57	11605.84
837.75	11355.99
837.92	11339.60
838.10	11280.21
838.28	11257.68
838.45	11474.77
838.63	11376.47
838.81	11331.41
838.98	11249.49
839.16	11360.08
839.34	11106.13
839.51	11243.35
839.69	11198.29
839.87	11169.62
840.04	11122.52
840.22	11331.41
840.40	11048.79
840.57	11132.76
840.75	11308.88
840.93	11022.17
841.10	11063.13
841.28	11308.88
841.46	11253.59
841.63	11128.66
841.81	11044.70
841.98	11089.75
842.16	11007.83
842.34	11077.46
842.51	11075.42
842.69	10979.16
842.87	11020.12
843.04	11147.09
843.22	10714.97
843.40	10930.01
843.57	10807.13
843.75	10973.02
843.92	10995.54
844.10	11046.74
844.28	10958.68
844.45	10975.06
844.63	10823.51
844.81	10798.94
844.98	10803.04
845.16	10659.68
845.33	10487.65
845.51	10725.21
845.69	10573.66
845.86	10682.20
846.04	10389.35
846.21	10604.38
846.39	10637.15
846.57	10665.82
846.74	10530.66
846.92	10631.01
847.09	10444.64
847.27	10600.29
847.45	10506.08
847.62	10585.95
847.80	10434.40
847.97	10624.86
848.15	10571.61
848.32	10286.95
848.50	10342.24
848.68	10264.42
848.85	10383.20
849.03	10170.21
849.20	10260.32
849.38	10303.33
849.56	10313.57
849.73	10327.91
849.91	10202.98
850.08	10309.47
850.26	10082.15
850.43	10364.77
850.61	10215.27
850.78	10051.43
850.96	10127.21
851.14	10219.36
851.31	10229.60
851.49	10157.92
851.66	10254.18
851.84	10125.16
852.01	10245.99
852.19	10149.73
852.36	10131.30
852.54	9994.09
852.71	9981.80
852.89	10159.97
853.07	9906.02
853.24	10114.92
853.42	10026.86
853.59	9906.02
853.77	9942.89
853.94	10080.10
854.12	10018.66
854.29	9885.55
854.47	9959.27
854.64	9936.74
854.82	9963.37
854.99	9983.85
855.17	9715.56
855.34	9740.14
855.52	9793.39
855.69	10022.76
855.87	9717.61
856.04	9777.00
856.22	9856.87
856.39	9707.37
856.57	9713.52
856.74	9658.22
856.92	9668.46
857.09	9844.59
857.27	9727.85
857.44	9588.59
857.62	9643.88
857.79	9502.58
857.97	9639.79
858.14	9494.38
858.32	9574.25
858.49	9637.74
858.67	9615.21
858.84	9443.18
859.02	9500.53
859.19	9455.47
859.37	9500.53
859.54	9490.29
859.72	9369.46
859.89	9457.52
860.06	9308.02
860.24	9269.11
860.41	9445.23
860.59	9375.60
860.76	9424.75
860.94	9314.16
861.11	9254.77
861.29	9252.72
861.46	9201.52
861.64	9283.44
861.81	9168.76
861.98	9101.17
862.16	9342.83
862.33	9056.12
862.51	9154.42
862.68	9129.84
862.86	9049.97
863.03	9203.57
863.21	9041.78
863.38	9043.83
863.55	9154.42
863.73	9205.62
863.90	9080.69
864.08	9088.89
864.25	9045.88
864.43	9203.57
864.60	8980.34
864.77	9168.76
864.95	8923.00
865.12	8890.23
865.30	9019.25
865.47	9033.59
865.64	8953.72
865.82	9070.45
865.99	8978.30
866.17	9090.93
866.34	8783.74
866.51	8847.22
866.69	8966.01
866.86	8918.90
867.04	9113.46
867.21	8849.27
867.38	8800.12
867.56	8810.36
867.73	8753.02
867.91	8812.41
868.08	8728.44
868.25	8669.05
868.43	8699.77
868.60	8648.57
868.78	8671.10
868.95	8843.13
869.12	8816.51
869.30	8685.44
869.47	8560.51
869.64	8519.55
869.82	8574.85
869.99	8425.34
870.16	8560.51
870.34	8458.11
870.51	8570.75
870.69	8474.49
870.86	8384.38
871.03	8503.17
871.21	8376.19
871.38	8460.16
871.55	8406.91
871.73	8298.37
871.90	8126.34
872.07	8363.90
872.25	8312.71
872.42	8312.71
872.59	8386.43
872.77	8206.21
872.94	8472.45
873.11	8327.04
873.29	8290.18
873.46	8230.79
873.63	8312.71
873.81	8048.52
873.98	8132.48
874.15	8259.46
874.33	7997.32
874.50	8134.53
874.67	8288.13
874.85	8189.83
875.02	8103.81
875.19	7978.89
875.37	8075.14
875.54	8001.41
875.71	7997.32
875.88	8003.46
876.06	7856.01
876.23	7825.29
876.40	7825.29
876.58	7878.54
876.75	7946.12
876.92	7772.04
877.10	7962.50
877.27	7819.14
877.44	7720.84
877.61	7704.46
877.79	7833.48
877.96	7776.14
878.13	7825.29
878.31	7751.56
878.48	7696.27
878.65	7561.10
878.82	7542.67
879.00	7532.43
879.17	7583.63
879.34	7561.10
879.51	7608.20
879.69	7497.61
879.86	7421.84
880.03	7606.16
880.21	7536.52
880.38	7397.26
880.55	7421.84
880.72	7503.76
880.90	7432.08
881.07	7358.35
881.24	7497.61
881.41	7438.22
881.59	7346.06
881.76	7524.24
881.93	7348.11
882.10	7284.62
882.28	7333.78
882.45	7415.69
882.62	7225.23
882.79	7421.84
882.96	7149.46
883.14	7303.06
883.31	7171.99
883.48	7229.33
883.65	7354.26
883.83	7262.10
884.00	7301.01
884.17	7327.63
884.34	7167.89
884.51	7253.91
884.69	7251.86
884.86	7233.43
885.03	7169.94
885.20	7063.44
885.38	7309.20
885.55	7176.08
885.72	7315.34
885.89	7040.92
886.06	7073.68
886.24	7104.40
886.41	7008.15
886.58	7219.09
886.75	7391.12
886.92	6887.32
887.10	6973.33
887.27	6922.13
887.44	7038.87
887.61	7298.96
887.78	7061.40
887.95	7055.25
888.13	6989.72
888.30	7053.20
888.47	7018.39
888.64	6883.22
888.81	7004.05
888.99	7034.77
889.16	6836.12
889.33	7026.58
889.50	6967.19
889.67	7030.68
889.84	6973.33
890.01	6909.85
890.19	6870.94
890.36	6903.70
890.53	6784.92
890.70	6932.37
890.87	6858.65
891.04	6918.04
891.22	6815.64
891.39	6934.42
891.56	6780.82
891.73	6840.22
891.90	6760.34
892.07	6907.80
892.24	6782.87
892.42	6918.04
892.59	6735.77
892.76	6799.26
892.93	6795.16
893.10	6686.62
893.27	6807.45
893.44	6616.99
893.61	6684.57
893.79	6614.94
893.96	6758.30
894.13	6565.79
894.30	6666.14
894.47	6547.36
894.64	6647.71
894.81	6594.46
894.98	6582.17
895.15	6612.89
895.33	6567.84
895.50	6490.01
895.67	6666.14
895.84	6565.79
896.01	6471.58
896.18	6332.32
896.35	6545.31
896.52	6485.92
896.69	6571.93
896.86	6512.54
897.04	6500.25
897.21	6655.90
897.38	6621.08
897.55	6545.31
897.72	6494.11
897.89	6639.51
898.06	6504.35
898.23	6688.67
898.40	6469.53
898.57	6459.29
898.74	6616.99
898.91	6516.64
899.08	6549.40
899.26	6582.17
899.43	6426.53
899.60	6477.73
899.77	6416.29
899.94	6350.75
900.11	6395.81
900.28	6424.48
900.45	6285.22
900.62	6449.05
900.79	6371.23
900.96	6365.09
901.13	6539.16
901.30	6250.40
901.47	6248.35
901.64	6410.14
901.81	6399.90
901.98	6256.54
902.15	6453.15
902.32	6186.91
902.49	6338.46
902.66	6381.47
902.83	6408.09
903.01	6297.50
903.18	6272.93
903.35	6311.84
903.52	6317.98
903.69	6379.42
903.86	6404.00
904.03	6363.04
904.20	6467.49
904.37	6262.69
904.54	6313.89
904.71	6338.46
904.88	6524.83
905.05	6215.59
905.22	6238.11
905.39	6309.79
905.56	6322.08
905.73	6338.46
905.90	6162.34
906.07	6444.96
906.24	6254.50
906.41	6287.26
906.58	6352.80
906.75	6248.35
906.92	6303.65
907.09	6250.40
907.26	6188.96
907.43	6238.11
907.60	6432.67
907.77	6287.26
907.93	6219.68
908.10	6244.26
908.27	6287.26
908.44	6287.26
908.61	6184.87
908.78	6326.18
908.95	6332.32
909.12	6328.22
909.29	6145.95
909.46	6172.58
909.63	6221.73
909.80	5965.73
909.97	6219.68
910.14	6293.41
910.31	6188.96
910.48	6287.26
910.65	6264.74
910.82	6094.76
910.99	6238.11
911.16	6211.49
911.33	6254.50
911.50	6100.90
911.66	6074.28
911.83	6049.70
912.00	6049.70
912.17	6039.46
912.34	6090.66
912.51	6004.64
912.68	6049.70
912.85	5930.92
913.02	6047.65
913.19	5961.64
913.36	6057.89
913.53	6068.13
913.70	6016.93
913.86	5943.21
914.03	6084.52
914.20	5838.76
914.37	5885.86
914.54	5832.62
914.71	5875.62
914.88	5984.16
915.05	5844.90
915.22	5795.75
915.39	5926.82
915.55	5803.94
915.72	5816.23
915.89	5810.09
916.06	5660.59
916.23	5879.72
916.40	5732.26
916.57	5738.41
916.74	5730.22
916.91	5744.55
917.07	5719.98
917.24	5529.52
917.41	5752.74
917.58	5769.13
917.75	5746.60
917.92	5609.39
918.09	5724.07
918.26	5676.97
918.42	5558.19
918.59	5580.71
918.76	5582.76
918.93	5502.89
919.10	5486.51
919.27	5490.60
919.44	5500.84
919.60	5666.73
919.77	5408.69
919.94	5455.79
920.11	5513.13
920.28	5494.70
920.45	5453.74
920.61	5332.91
920.78	5398.45
920.95	5488.56
921.12	5351.34
921.29	5535.66
921.46	5373.87
921.62	5283.76
921.79	5349.29
921.96	5298.10
922.13	5162.93
922.30	5236.66
922.47	5261.23
922.63	5238.70
922.80	5124.02
922.97	5142.45
923.14	5070.77
923.31	4992.95
923.47	5103.54
923.64	5244.85
923.81	5066.67
923.98	5048.24
924.15	4976.56
924.32	5035.96
924.48	4982.71
924.65	4958.13
924.82	4913.08
924.99	5023.67
925.15	4888.50
925.32	5013.43
925.49	4902.84
925.66	4917.17
925.83	4990.90
925.99	4847.54
926.16	5021.62
926.33	4755.38
926.50	4745.14
926.67	4804.53
926.83	4845.49
927.00	4812.73
927.17	4775.86
927.34	4822.97
927.50	4736.95
927.67	4693.94
927.84	4595.64
928.01	4652.98
928.17	4706.23
928.34	4720.57
928.51	4536.25
928.68	4583.35
928.84	4569.02
929.01	4489.15
929.18	4511.68
929.35	4444.09
929.51	4542.39
929.68	4497.34
929.85	4399.04
930.02	4446.14
930.18	4464.57
930.35	4483.00
930.52	4509.63
930.69	4401.08
930.85	4364.22
931.02	4327.36
931.19	4251.58
931.36	4331.45
931.52	4280.25
931.69	4321.21
931.86	4335.55
932.02	4241.34
932.19	4233.15
932.36	4196.29
932.53	4241.34
932.69	4210.62
932.86	4214.72
933.03	4122.56
933.19	4040.64
933.36	4112.32
933.53	4118.47
933.70	4032.45
933.86	3991.49
934.03	4071.36
934.20	3885.00
934.36	4087.75
934.53	3991.49
934.70	3940.29
934.86	4009.92
935.03	3837.89
935.20	3803.08
935.36	3876.80
935.53	3889.09
935.70	3887.04
935.86	3794.89
936.03	3766.21
936.20	3602.38
936.36	3811.27
936.53	3672.01
936.70	3688.39
936.86	3766.21
937.03	3672.01
937.20	3567.56
937.36	3594.19
937.53	3561.42
937.70	3547.08
937.86	3352.52
938.03	3327.95
938.20	3565.51
938.36	3418.06
938.53	3436.49
938.70	3291.09
938.86	3354.57
939.03	3336.14
939.20	3209.17
939.36	3342.28
939.53	3231.69
939.70	3262.41
939.86	3190.74
940.03	3182.54
940.19	3147.73
940.36	3164.11
940.53	3192.78
940.69	3018.71
940.86	2965.46
941.03	3033.04
941.19	3049.43
941.36	2971.60
941.52	2996.18
941.69	2975.70
941.86	2848.72
942.02	2985.94
942.19	2877.40
942.35	2910.16
942.52	2840.53
942.69	2875.35
942.85	2805.72
943.02	2938.84
943.18	2811.86
943.35	2828.24
943.52	2789.33
943.68	2805.72
943.85	2766.81
944.01	2674.65
944.18	2664.41
944.35	2705.37
944.51	2619.35
944.68	2631.64
944.84	2639.83
945.01	2576.34
945.17	2725.85
945.34	2533.34
945.51	2639.83
945.67	2664.41
945.84	2576.34
946.00	2584.54
946.17	2596.82
946.33	2598.87
946.50	2590.68
946.67	2500.57
946.83	2574.30
947.00	2650.07
947.16	2566.10
947.33	2537.43
947.49	2615.26
947.66	2506.71
947.82	2564.06
947.99	2553.82
948.16	2576.34
948.32	2500.57
948.49	2547.67
948.65	2570.20
948.82	2486.23
948.98	2504.67
949.15	2447.32
949.31	2596.82
949.48	2447.32
949.64	2463.71
949.81	2516.95
949.97	2533.34
950.14	2574.30
950.30	2537.43
950.47	2582.49
950.63	2516.95
950.80	2463.71
950.96	2555.86
951.13	2447.32
951.30	2555.86
951.46	2580.44
951.63	2592.73
951.79	2484.19
951.96	2607.06
952.12	2523.10
952.29	2510.81
952.45	2533.34
952.62	2512.86
952.78	2494.43
952.94	2568.15
953.11	2443.23
953.27	2480.09
953.44	2576.34
953.60	2574.30
953.77	2605.02
953.93	2543.58
954.10	2428.89
954.26	2553.82
954.43	2469.85
954.59	2652.12
954.76	2562.01
954.92	2443.23
955.09	2549.72
955.25	2510.81
955.42	2428.89
955.58	2480.09
955.75	2559.96
955.91	2516.95
956.07	2406.36
956.24	2471.90
956.40	2508.76
956.57	2461.66
956.73	2447.32
956.90	2439.13
957.06	2496.47
957.23	2506.71
957.39	2502.62
957.56	2437.08
957.72	2326.49
957.88	2447.32
958.05	2406.36
958.21	2500.57
958.38	2490.33
958.54	2473.95
958.71	2541.53
958.87	2465.75
959.03	2357.21
959.20	2414.56
959.36	2396.12
959.53	2457.56
959.69	2432.99
959.85	2494.43
960.02	2404.32
960.18	2432.99
960.35	2400.22
960.51	2420.70
960.68	2404.32
960.84	2443.23
961.00	2420.70
961.17	2437.08
961.33	2449.37
961.50	2379.74
961.66	2488.28
961.82	2467.80
961.99	2404.32
962.15	2432.99
962.31	2381.79
962.48	2373.60
962.64	2396.12
962.81	2398.17
962.97	2402.27
963.13	2404.32
963.30	2392.03
963.46	2310.11
963.62	2346.97
963.79	2367.45
963.95	2322.40
964.12	2406.36
964.28	2373.60
964.44	2361.31
964.61	2414.56
964.77	2349.02
964.93	2322.40
965.10	2389.98
965.26	2387.93
965.42	2381.79
965.59	2269.15
965.75	2359.26
965.92	2334.68
966.08	2328.54
966.24	2312.16
966.41	2353.12
966.57	2297.82
966.73	2322.40
966.90	2406.36
967.06	2299.87
967.22	2359.26
967.39	2308.06
967.55	2209.76
967.71	2344.92
967.88	2263.01
968.04	2314.20
968.20	2340.83
968.37	2199.52
968.53	2279.39
968.69	2318.30
968.85	2338.78
969.02	2308.06
969.18	2281.44
969.34	2252.77
969.51	2406.36
969.67	2267.10
969.83	2250.72
970.00	2275.29
970.16	2365.40
970.32	2197.47
970.48	2316.25
970.65	2226.14
970.81	2279.39
970.97	2260.96
971.14	2224.09
971.30	2220.00
971.46	2248.67
971.63	2224.09
971.79	2295.77
971.95	2291.68
972.11	2197.47
972.28	2203.61
972.44	2236.38
972.60	2318.30
972.76	2230.24
972.93	2269.15
973.09	2217.95
973.25	2138.08
973.42	2303.96
973.58	2207.71
973.74	2242.53
973.90	2238.43
974.07	2166.75
974.23	2226.14
974.39	2164.70
974.55	2211.81
974.72	2158.56
974.88	2152.42
975.04	2240.48
975.20	2244.57
975.37	2308.06
975.53	2203.61
975.69	2244.57
975.85	2207.71
976.01	2226.14
976.18	2230.24
976.34	2263.01
976.50	2242.53
976.66	2146.27
976.83	2283.49
976.99	2242.53
977.15	2162.66
977.31	2107.36
977.47	2191.33
977.64	2162.66
977.80	2166.75
977.96	2238.43
978.12	2179.04
978.29	2179.04
978.45	2179.04
978.61	2078.69
978.77	2203.61
978.93	2187.23
979.10	2199.52
979.26	2103.26
979.42	2113.50
979.58	2174.94
979.74	2156.51
979.91	2095.07
980.07	2099.17
980.23	2181.09
980.39	2170.85
980.55	2131.94
980.71	2119.65
980.88	2187.23
981.04	2176.99
981.20	2226.14
981.36	2125.79
981.52	2154.46
981.68	2160.61
981.85	2148.32
982.01	2019.30
982.17	2119.65
982.33	2127.84
982.49	2080.74
982.65	2103.26
982.82	2103.26
982.98	2093.02
983.14	2009.06
983.30	2146.27
983.46	2066.40
983.62	2193.37
983.79	2101.22
983.95	2070.50
984.11	2031.58
984.27	1998.82
984.43	2056.16
984.59	2084.83
984.75	2121.70
984.91	2033.63
985.08	2095.07
985.24	2031.58
985.40	1970.15
985.56	2052.06
985.72	2064.35
985.88	2129.89
986.04	2031.58
986.20	2043.87
986.37	2019.30
986.53	2084.83
986.69	2029.54
986.85	2058.21
987.01	1994.72
987.17	2084.83
987.33	2017.25
987.49	1966.05
987.65	2078.69
987.82	2035.68
987.98	2004.96
988.14	2060.26
988.30	1968.10
988.46	1959.91
988.62	2062.30
988.78	2060.26
988.94	1982.43
989.10	1947.62
989.26	2011.11
989.42	2037.73
989.59	2043.87
989.75	2035.68
989.91	2050.02
990.07	1902.56
990.23	2041.82
990.39	2025.44
990.55	2099.17
990.71	1920.99
990.87	1961.95
991.03	2021.35
991.19	1972.19
991.35	1974.24
991.51	2027.49
991.67	2023.39
991.83	1972.19
992.00	1984.48
992.16	1996.77
992.32	2015.20
992.48	2009.06
992.64	2009.06
992.80	1994.72
992.96	1955.81
993.12	1933.28
993.28	1998.82
993.44	2033.63
993.60	1970.15
993.76	1920.99
993.92	1937.38
994.08	2015.20
994.24	1916.90
994.40	1910.75
994.56	1982.43
994.72	1937.38
994.88	1892.32
995.04	1964.00
995.20	1937.38
995.36	1994.72
995.52	1955.81
995.68	1925.09
995.84	1980.39
996.00	1957.86
996.16	1869.80
996.32	1994.72
996.48	1935.33
996.64	2017.25
996.80	1877.99
996.96	1949.67
997.12	1892.32
997.28	1945.57
997.44	1906.66
997.60	1923.04
997.76	1961.95
997.92	1906.66
998.08	1941.47
998.24	1923.04
998.40	1939.43
998.56	1918.95
998.72	1857.51
998.88	1843.17
999.04	1845.22
999.20	1900.52
999.36	1871.84
999.52	1974.24
999.68	1888.23
999.84	1880.04
1000.00	1843.17
1000.16	1880.04
1000.32	1810.40
1000.48	1886.18
1000.64	1894.37
1000.80	1888.23
1000.95	1873.89
1001.11	1834.98
1001.27	1810.40
1001.43	1906.66
1001.59	1873.89
1001.75	1765.35
1001.91	1843.17
1002.07	1873.89
1002.23	1826.79
1002.39	1812.45
1002.55	1859.56
1002.71	1806.31
1002.87	1798.12
1003.03	1884.13
1003.19	1847.27
1003.34	1904.61
1003.50	1816.55
1003.66	1890.28
1003.82	2002.91
1003.98	1837.03
1004.14	1841.12
1004.30	1716.20
1004.46	1832.93
1004.62	1800.16
1004.78	1830.88
1004.94	1884.13
1005.09	1767.40
1005.25	1904.61
1005.41	1769.44
1005.57	1802.21
1005.73	1839.08
1005.89	1761.25
1006.05	1898.47
1006.21	1791.97
1006.37	1802.21
1006.52	1785.83
1006.68	1796.07
1006.84	1828.84
1007.00	1736.68
1007.16	1804.26
1007.32	1763.30
1007.48	1894.37
1007.64	1847.27
1007.79	1779.68
1007.95	1748.97
1008.11	1806.31
1008.27	1755.11
1008.43	1814.50
1008.59	1785.83
1008.75	1794.02
1008.91	1865.70
1009.06	1814.50
1009.22	1892.32
1009.38	1789.92
1009.54	1806.31
1009.70	1773.54
1009.86	1765.35
1010.01	1814.50
1010.17	1818.60
1010.33	1849.32
1010.49	1781.73
1010.65	1824.74
1010.81	1822.69
1010.96	1730.53
1011.12	1787.88
1011.28	1804.26
1011.44	1783.78
1011.60	1796.07
1011.76	1769.44
1011.91	1740.77
1012.07	1753.06
1012.23	1789.92
1012.39	1724.39
1012.55	1773.54
1012.71	1722.34
1012.86	1742.82
1013.02	1800.16
1013.18	1740.77
1013.34	1759.21
1013.50	1828.84
1013.65	1767.40
1013.81	1722.34
1013.97	1705.96
1014.13	1759.21
1014.29	1820.64
1014.44	1761.25
1014.60	1705.96
1014.76	1755.11
1014.92	1679.33
1015.07	1646.57
1015.23	1777.64
1015.39	1742.82
1015.55	1695.72
1015.71	1779.68
1015.86	1646.57
1016.02	1726.44
1016.18	1671.14
1016.34	1763.30
1016.49	1681.38
1016.65	1732.58
1016.81	1736.68
1016.97	1736.68
1017.12	1738.73
1017.28	1628.14
1017.44	1791.97
1017.60	1697.77
1017.75	1734.63
1017.91	1714.15
1018.07	1740.77
1018.23	1757.16
1018.38	1734.63
1018.54	1679.33
1018.70	1693.67
1018.86	1712.10
1019.01	1765.35
1019.17	1763.30
1019.33	1759.21
1019.49	1691.62
1019.64	1652.71
1019.80	1675.24
1019.96	1734.63
1020.12	1605.61
1020.27	1744.87
1020.43	1642.47
1020.59	1769.44
1020.74	1677.29
1020.90	1779.68
1021.06	1607.66
1021.22	1705.96
1021.37	1648.61
1021.53	1716.20
1021.69	1712.10
1021.84	1646.57
1022.00	1689.57
1022.16	1654.76
1022.31	1673.19
1022.47	1720.29
1022.63	1667.05
1022.79	1597.42
1022.94	1644.52
1023.10	1753.06
1023.26	1585.13
1023.41	1642.47
1023.57	1675.24
1023.73	1642.47
1023.88	1675.24
1024.04	1693.67
1024.20	1765.35
1024.35	1689.57
1024.51	1658.85
1024.67	1660.90
1024.82	1832.93
1024.98	1619.94
1025.14	1726.44
1025.29	1607.66
1025.45	1646.57
1025.61	1621.99
1025.76	1654.76
1025.92	1621.99
1026.08	1703.91
1026.23	1554.41
1026.39	1701.86
1026.55	1728.49
1026.70	1632.23
1026.86	1654.76
1027.02	1675.24
1027.17	1648.61
1027.33	1677.29
1027.48	1722.34
1027.64	1529.83
1027.80	1679.33
1027.95	1675.24
1028.11	1589.22
1028.27	1638.38
1028.42	1679.33
1028.58	1665.00
1028.73	1624.04
1028.89	1578.98
1029.05	1644.52
1029.20	1658.85
>>>>>End Processed Spectral Data<<<<<
