SpectraSuite Data File
++++++++++++++++++++++++++++++++++++
Date: Tue Jun 13 12:02:25 CEST 2017
User: INFO_000
Dark Spectrum Present: No
Reference Spectrum Present: No
Number of Sampled Component Spectra: 1
Spectrometers: USB4H00879
Integration Time (usec): 30000 (USB4H00879)
Spectra Averaged: 1 (USB4H00879)
Boxcar Smoothing: 0 (USB4H00879)
Correct for Electrical Dark: No (USB4H00879)
Strobe/Lamp Enabled: No (USB4H00879)
Correct for Detector Non-linearity: No (USB4H00879)
Correct for Stray Light: No (USB4H00879)
Number of Pixels in Processed Spectrum: 3648
>>>>>Begin Processed Spectral Data<<<<<
345.13	1378.28
345.34	1378.28
345.56	1378.28
345.78	1419.24
345.99	1368.04
346.21	1535.98
346.42	1513.45
346.64	1486.83
346.86	1525.74
347.07	1449.96
347.29	1546.22
347.50	1437.67
347.72	1497.07
347.94	1517.54
348.15	1488.87
348.37	1535.98
348.59	1540.07
348.80	1538.02
349.02	1601.51
349.23	1589.22
349.45	1640.42
349.67	1689.57
349.88	1611.75
350.10	1691.62
350.31	1677.29
350.53	1617.90
350.75	1710.05
350.96	1474.54
351.18	1570.79
351.39	1505.26
351.61	1605.61
351.82	1624.04
352.04	1687.53
352.26	1533.93
352.47	1613.80
352.69	1691.62
352.90	1566.70
353.12	1613.80
353.34	1654.76
353.55	1611.75
353.77	1675.24
353.98	1619.94
354.20	1570.79
354.41	1636.33
354.63	1599.46
354.85	1646.57
355.06	1716.20
355.28	1619.94
355.49	1626.09
355.71	1638.38
355.92	1621.99
356.14	1568.74
356.35	1665.00
356.57	1654.76
356.79	1636.33
357.00	1544.17
357.22	1611.75
357.43	1578.98
357.65	1710.05
357.86	1632.23
358.08	1671.14
358.29	1697.77
358.51	1695.72
358.72	1669.09
358.94	1689.57
359.16	1679.33
359.37	1683.43
359.59	1714.15
359.80	1689.57
360.02	1619.94
360.23	1683.43
360.45	1699.81
360.66	1681.38
360.88	1648.61
361.09	1677.29
361.31	1624.04
361.52	1701.86
361.74	1695.72
361.95	1705.96
362.17	1632.23
362.38	1722.34
362.60	1714.15
362.81	1679.33
363.03	1679.33
363.24	1669.09
363.46	1710.05
363.67	1726.44
363.89	1685.48
364.10	1701.86
364.32	1675.24
364.53	1691.62
364.75	1722.34
364.96	1691.62
365.18	1687.53
365.39	1701.86
365.61	1705.96
365.82	1751.01
366.04	1642.47
366.25	1724.39
366.47	1728.49
366.68	1636.33
366.90	1652.71
367.11	1691.62
367.33	1728.49
367.54	1654.76
367.76	1665.00
367.97	1722.34
368.19	1701.86
368.40	1695.72
368.62	1669.09
368.83	1621.99
369.05	1732.58
369.26	1689.57
369.48	1720.29
369.69	1726.44
369.91	1726.44
370.12	1738.73
370.33	1794.02
370.55	1712.10
370.76	1755.11
370.98	1751.01
371.19	1716.20
371.41	1759.21
371.62	1726.44
371.84	1726.44
372.05	1769.44
372.27	1701.86
372.48	1728.49
372.69	1789.92
372.91	1722.34
373.12	1763.30
373.34	1806.31
373.55	1781.73
373.77	1808.36
373.98	1767.40
374.20	1806.31
374.41	1820.64
374.62	1779.68
374.84	1787.88
375.05	1808.36
375.27	1765.35
375.48	1812.45
375.70	1794.02
375.91	1761.25
376.12	1882.08
376.34	1759.21
376.55	1798.12
376.77	1789.92
376.98	1822.69
377.19	1767.40
377.41	1771.49
377.62	1857.51
377.84	1757.16
378.05	1920.99
378.27	1843.17
378.48	1847.27
378.69	1918.95
378.91	1925.09
379.12	1886.18
379.34	1824.74
379.55	1847.27
379.76	1900.52
379.98	1820.64
380.19	1896.42
380.41	1832.93
380.62	1845.22
380.83	1873.89
381.05	1845.22
381.26	1914.85
381.47	1892.32
381.69	1929.19
381.90	1976.29
382.12	1937.38
382.33	1857.51
382.54	1800.16
382.76	1871.84
382.97	1931.23
383.19	1757.16
383.40	1902.56
383.61	1839.08
383.83	1884.13
384.04	1923.04
384.25	1982.43
384.47	1945.57
384.68	1961.95
384.89	1957.86
385.11	2027.49
385.32	1990.63
385.54	1959.91
385.75	1966.05
385.96	1992.67
386.18	2011.11
386.39	2013.15
386.60	1970.15
386.82	2009.06
387.03	2060.26
387.24	1894.37
387.46	1988.58
387.67	2050.02
387.88	1992.67
388.10	2062.30
388.31	2093.02
388.52	2050.02
388.74	2070.50
388.95	2015.20
389.16	1970.15
389.38	2115.55
389.59	2031.58
389.80	2146.27
390.02	2181.09
390.23	2029.54
390.44	2158.56
390.66	2140.13
390.87	2047.97
391.08	2045.92
391.30	2168.80
391.51	2131.94
391.72	2201.57
391.94	2119.65
392.15	2179.04
392.36	2195.42
392.58	2142.18
392.79	2168.80
393.00	2156.51
393.22	2267.10
393.43	2217.95
393.64	2267.10
393.85	2338.78
394.07	2166.75
394.28	2193.37
394.49	2316.25
394.71	2258.91
394.92	2312.16
395.13	2242.53
395.35	2236.38
395.56	2250.72
395.77	2271.20
395.98	2220.00
396.20	2303.96
396.41	2330.59
396.62	2310.11
396.84	2260.96
397.05	2324.44
397.26	2400.22
397.47	2349.02
397.69	2340.83
397.90	2412.51
398.11	2410.46
398.32	2326.49
398.54	2361.31
398.75	2351.07
398.96	2408.41
399.18	2523.10
399.39	2445.27
399.60	2451.42
399.81	2426.84
400.03	2500.57
400.24	2494.43
400.45	2342.88
400.66	2510.81
400.88	2482.14
401.09	2498.52
401.30	2559.96
401.51	2484.19
401.73	2488.28
401.94	2549.72
402.15	2660.31
402.36	2623.45
402.58	2566.10
402.79	2600.92
403.00	2594.78
403.21	2533.34
403.43	2645.98
403.64	2625.50
403.85	2566.10
404.06	2564.06
404.27	2596.82
404.49	2600.92
404.70	2633.69
404.91	2709.46
405.12	2707.41
405.34	2621.40
405.55	2783.19
405.76	2609.11
405.97	2660.31
406.19	2697.17
406.40	2615.26
406.61	2658.26
406.82	2809.81
407.03	2865.11
407.25	2756.57
407.46	2836.44
407.67	2678.74
407.88	2760.66
408.09	2703.32
408.31	2711.51
408.52	2807.77
408.73	2670.55
408.94	2842.58
409.15	2858.96
409.37	2883.54
409.58	2795.48
409.79	2883.54
410.00	2914.26
410.21	2762.71
410.43	2781.14
410.64	2846.68
410.85	2858.96
411.06	2924.50
411.27	2818.00
411.48	2883.54
411.70	2940.88
411.91	2938.84
412.12	2990.03
412.33	3020.75
412.54	2969.55
412.76	3053.52
412.97	2975.70
413.18	2928.60
413.39	3018.71
413.60	3049.43
413.81	3039.19
414.03	3069.91
414.24	3057.62
414.45	3141.58
414.66	3033.04
414.87	3112.91
415.08	3088.34
415.30	3196.88
415.51	3039.19
415.72	3145.68
415.93	3129.30
416.14	3063.76
416.35	3057.62
416.56	3129.30
416.78	3129.30
416.99	3223.50
417.20	3188.69
417.41	3291.09
417.62	3137.49
417.83	3256.27
418.04	3219.41
418.26	3213.26
418.47	3205.07
418.68	3223.50
418.89	3258.32
419.10	3391.44
419.31	3272.65
419.52	3395.53
419.73	3311.57
419.95	3397.58
420.16	3258.32
420.37	3336.14
420.58	3356.62
420.79	3237.84
421.00	3354.57
421.21	3309.52
421.42	3350.48
421.63	3364.81
421.85	3405.77
422.06	3463.12
422.27	3393.48
422.48	3438.54
422.69	3585.99
422.90	3508.17
423.11	3514.31
423.32	3528.65
423.53	3590.09
423.75	3581.90
423.96	3622.86
424.17	3598.28
424.38	3614.66
424.59	3672.01
424.80	3733.45
425.01	3741.64
425.22	3704.78
425.43	3712.97
425.64	3782.60
425.85	3790.79
426.06	3770.31
426.28	3635.14
426.49	3616.71
426.70	3669.96
426.91	3702.73
427.12	3860.42
427.33	3932.10
427.54	3874.76
427.75	4011.97
427.96	4046.79
428.17	3774.41
428.38	3950.53
428.59	4077.51
428.80	3895.24
429.01	4085.70
429.23	4016.07
429.44	4030.40
429.65	4042.69
429.86	4097.99
430.07	4067.27
430.28	4177.86
430.49	4077.51
430.70	4095.94
430.91	4171.71
431.12	4188.10
431.33	4333.50
431.54	4308.93
431.75	4351.93
431.96	4272.06
432.17	4196.29
432.38	4208.58
432.59	4237.25
432.80	4392.89
433.01	4431.80
433.22	4466.62
433.43	4452.28
433.64	4386.75
433.85	4212.67
434.06	4360.13
434.27	4399.04
434.49	4222.91
434.70	4513.72
434.91	4591.55
435.12	4566.97
435.33	4569.02
435.54	4515.77
435.75	4472.76
435.96	4589.50
436.17	4442.04
436.38	4755.38
436.59	4646.84
436.80	4734.90
437.01	4845.49
437.22	4855.73
437.43	4521.92
437.64	4587.45
437.85	4792.25
438.06	4845.49
438.27	4585.40
438.48	4759.48
438.69	4820.92
438.90	4960.18
439.11	4669.37
439.32	4792.25
439.53	4921.27
439.74	4839.35
439.95	4962.23
440.16	4861.88
440.37	4898.74
440.57	4771.77
440.78	4982.71
440.99	4956.08
441.20	4984.76
441.41	4964.28
441.62	4988.85
441.83	4855.73
442.04	5021.62
442.25	5128.11
442.46	5095.35
442.67	5285.81
442.88	5447.60
443.09	5074.87
443.30	5099.44
443.51	5074.87
443.72	5396.40
443.93	5064.63
444.14	5365.68
444.35	5185.46
444.56	5306.29
444.77	5261.23
444.98	5339.05
445.19	5468.08
445.40	5343.15
445.61	5500.84
445.81	5398.45
446.02	5392.30
446.23	5373.87
446.44	5339.05
446.65	5480.36
446.86	5390.25
447.07	5388.21
447.28	5703.59
447.49	5619.63
447.70	5541.80
447.91	5578.67
448.12	5595.05
448.33	5558.19
448.54	5590.95
448.74	5654.44
448.95	5697.45
449.16	5515.18
449.37	5816.23
449.58	5679.02
449.79	5830.57
450.00	5650.35
450.21	5830.57
450.42	5986.21
450.63	5838.76
450.84	5748.65
451.05	5781.42
451.25	5877.67
451.46	5791.66
451.67	5814.18
451.88	5935.01
452.09	5875.62
452.30	6131.62
452.51	6092.71
452.72	6074.28
452.93	6100.90
453.13	5865.38
453.34	6031.27
453.55	6082.47
453.76	6326.18
453.97	6424.48
454.18	6166.43
454.39	6205.35
454.60	6229.92
454.81	6217.63
455.01	6408.09
455.22	6299.55
455.43	6475.68
455.64	6541.21
455.85	6471.58
456.06	6700.95
456.27	6619.04
456.48	6604.70
456.68	6705.05
456.89	6580.12
457.10	6877.08
457.31	6717.34
457.52	6774.68
457.73	6778.78
457.94	6780.82
458.14	6782.87
458.35	7038.87
458.56	6915.99
458.77	6815.64
458.98	6999.96
459.19	6899.61
459.39	7073.68
459.60	7069.59
459.81	6829.98
460.02	7227.28
460.23	7325.58
460.44	7341.97
460.65	7247.76
460.85	7362.45
461.06	7352.21
461.27	7120.79
461.48	7427.98
461.69	7630.73
461.89	7350.16
462.10	7579.53
462.31	7309.20
462.52	7430.03
462.73	7475.09
462.94	7593.87
463.14	7718.79
463.35	7720.84
463.56	7964.55
463.77	7745.42
463.98	7653.26
464.18	7862.15
464.39	8171.40
464.60	8025.99
464.81	7917.45
465.02	8085.38
465.23	8390.53
465.43	8157.06
465.64	8318.85
465.85	8368.00
466.06	8103.81
466.27	8476.54
466.47	8384.38
466.68	8482.69
466.89	8394.62
467.10	8480.64
467.30	8347.52
467.51	8740.73
467.72	8724.35
467.93	8525.69
468.14	8802.17
468.34	8882.04
468.55	8847.22
468.76	8963.96
468.97	8791.93
469.17	8994.68
469.38	8984.44
469.59	9215.86
469.80	8945.53
470.01	9054.07
470.21	9201.52
470.42	9301.87
470.63	9547.63
470.84	9297.78
471.04	9408.37
471.25	9508.72
471.46	9492.34
471.67	9641.84
471.87	9699.18
472.08	9783.15
472.29	9860.97
472.50	9695.08
472.70	9832.30
472.91	10010.47
473.12	10159.97
473.33	10053.48
473.53	10157.92
473.74	10172.26
473.95	10334.05
474.16	10399.59
474.36	10497.89
474.57	10555.23
474.78	10604.38
474.99	10633.05
475.19	10428.26
475.40	10665.82
475.61	10811.23
475.81	10835.80
476.02	11163.48
476.23	10913.63
476.44	11186.01
476.64	11231.06
476.85	11439.95
477.06	11237.20
477.27	11501.39
477.47	11579.22
477.68	11548.50
477.89	11822.92
478.09	11618.13
478.30	11796.30
478.51	11908.94
478.71	11921.23
478.92	11847.50
479.13	12085.06
479.34	12154.69
479.54	12144.45
479.75	12324.68
479.96	12134.21
480.16	12365.64
480.37	12404.55
480.58	12701.50
480.78	13100.86
480.99	12910.40
481.20	12998.46
481.41	13186.87
481.61	12885.82
481.82	13049.66
482.03	13182.77
482.23	13031.23
482.44	13279.03
482.65	13391.67
482.85	13420.34
483.06	13453.11
483.27	13352.76
483.47	13465.39
483.68	13825.84
483.89	13852.46
484.09	13836.08
484.30	13985.58
484.51	14061.35
484.71	14104.36
484.92	13973.29
485.13	14276.39
485.33	14145.32
485.54	14427.94
485.75	14728.99
485.95	14720.80
486.16	14655.26
486.37	14915.36
486.57	14843.68
486.78	14792.48
486.98	14796.57
487.19	15107.87
487.40	15066.91
487.60	14917.40
487.81	15253.27
488.02	15425.30
488.22	15327.00
488.43	15335.19
488.64	15544.08
488.84	15734.54
489.05	15771.41
489.25	15875.85
489.46	15902.48
489.67	15920.91
489.87	16283.40
490.08	16133.90
490.29	16262.92
490.49	16441.09
490.70	16289.54
490.90	16701.19
491.11	16523.01
491.32	16652.03
491.52	16684.80
491.73	16733.95
491.94	16762.62
492.14	16875.26
492.35	16912.13
492.55	16971.52
492.76	17194.75
492.97	17190.65
493.17	17147.64
493.38	17434.36
493.58	17592.05
493.79	17506.04
494.00	17442.55
494.20	17585.91
494.41	17864.43
494.61	17882.86
494.82	17938.16
495.02	17700.59
495.23	18188.01
495.44	18171.63
495.64	18151.15
495.85	18185.96
496.05	18140.91
496.26	18220.78
496.47	18575.08
496.67	18468.58
496.88	18523.88
497.08	18532.07
497.29	18876.13
497.49	18548.45
497.70	18663.14
497.91	19091.16
498.11	18869.98
498.32	18958.05
498.52	19191.52
498.73	19646.16
498.93	19318.49
499.14	19406.55
499.34	19189.47
499.55	19631.83
499.76	19441.37
499.96	19746.51
500.17	19508.95
500.37	19609.30
500.58	19736.27
500.78	19590.87
500.99	19660.50
501.19	20043.47
501.40	19951.31
501.60	20170.44
501.81	19912.40
502.02	20207.31
502.22	19990.22
502.43	20268.75
502.63	20223.69
502.84	20571.85
503.04	20420.30
503.25	20422.34
503.45	20674.24
503.66	20752.07
503.86	20496.07
504.07	20893.38
504.27	20584.13
504.48	21018.30
504.68	20840.13
504.89	20999.87
505.09	21094.08
505.30	20960.96
505.50	21194.43
505.71	21046.97
505.91	21061.31
506.12	21366.46
506.32	21352.12
506.53	21407.42
506.73	21540.54
506.94	21657.27
507.14	21483.19
507.35	21587.64
507.55	21874.35
507.76	21798.58
507.96	21616.31
508.17	21878.45
508.37	21497.53
508.58	21876.40
508.78	21919.41
508.99	22183.60
509.19	22257.32
509.40	22103.73
509.60	22230.70
509.81	22183.60
510.01	22154.93
510.22	22539.94
510.42	22298.28
510.63	22533.80
510.83	22505.13
511.04	22707.88
511.24	22783.65
511.44	22304.43
511.65	22638.25
511.85	22730.41
512.06	22738.60
512.26	22433.45
512.47	22963.87
512.67	22660.77
512.88	22961.83
513.08	22746.79
513.29	23015.07
513.49	22920.87
513.69	23017.12
513.90	23164.57
514.10	23000.74
514.31	23082.66
514.51	23350.94
514.72	23307.93
514.92	23162.53
515.13	23101.09
515.33	23303.84
515.53	23582.36
515.74	23410.33
515.94	23924.37
516.15	23682.71
516.35	23707.29
516.56	23678.61
516.76	23785.11
516.96	23715.48
517.17	23842.45
517.37	23934.61
517.58	24239.76
517.78	23695.00
517.99	24213.13
518.19	24080.02
518.39	24254.09
518.60	24120.98
518.80	24196.75
519.01	24583.82
519.21	24299.15
519.41	24667.78
519.62	24467.08
519.82	24733.32
520.03	24473.23
520.23	24850.05
520.43	24731.27
520.64	24874.63
520.84	24639.11
521.05	24778.37
521.25	24925.83
521.45	25276.03
521.66	25063.04
521.86	24997.51
522.07	25181.82
522.27	25431.68
522.47	25323.13
522.68	25529.98
522.88	25452.16
523.08	25695.86
523.29	25532.03
523.49	25575.03
523.70	25575.03
523.90	26084.98
524.10	25595.51
524.31	26084.98
524.51	25712.25
524.71	26343.02
524.92	26005.11
525.12	26461.80
525.33	26328.69
525.53	26033.78
525.73	26451.56
525.94	26404.46
526.14	26154.61
526.34	26850.92
526.55	26599.02
526.75	26513.00
526.95	26519.15
527.16	26803.82
527.36	26861.16
527.56	27088.48
527.77	27127.39
527.97	27293.28
528.17	26791.53
528.38	27307.62
528.58	27465.31
528.78	27424.35
528.99	27242.08
529.19	27518.56
529.39	27227.74
529.60	27977.30
529.80	27827.80
530.00	27674.20
530.21	27786.84
530.41	28169.81
530.61	27766.36
530.82	27983.44
531.02	27840.09
531.22	28065.36
531.43	28116.56
531.63	28329.55
531.83	28378.70
532.04	28968.52
532.24	28225.11
532.44	29138.50
532.64	29154.88
532.85	28710.47
533.05	28964.42
533.25	29193.79
533.46	28958.28
533.66	29199.94
533.86	28905.03
534.07	29486.65
534.27	29087.30
534.47	29795.90
534.67	29752.89
534.88	29425.22
535.08	29384.26
535.28	29750.84
535.49	29775.42
535.69	30129.72
535.89	30191.16
536.09	30055.99
536.30	30463.54
536.50	30307.89
536.70	30676.52
536.91	30289.46
537.11	30031.41
537.31	30559.79
537.51	30426.67
537.72	30930.47
537.92	30744.11
538.12	30922.28
538.32	30873.13
538.53	31008.29
538.73	30654.00
538.93	30674.48
539.13	31200.80
539.34	31092.26
539.54	31004.20
539.74	31372.83
539.94	31333.92
540.15	31383.07
540.35	31759.90
540.55	31772.19
540.75	31530.53
540.96	31850.01
541.16	31352.35
541.36	31544.86
541.56	31843.87
541.77	31909.40
541.97	32026.14
542.17	31778.33
542.37	31766.04
542.58	31970.84
542.78	31657.50
542.98	31970.84
543.18	32065.05
543.38	32652.81
543.59	32405.01
543.79	32265.75
543.99	32136.73
544.19	32581.13
544.40	32353.81
544.60	32849.42
544.80	32710.16
545.00	32658.96
545.20	32810.51
545.41	32570.90
545.61	32800.27
545.81	33119.75
546.01	33156.61
546.21	33340.93
546.42	33043.98
546.62	33222.15
546.82	33111.56
547.02	33338.88
547.22	33330.69
547.43	33164.81
547.63	32941.58
547.83	33496.58
548.03	33234.44
548.23	33543.68
548.44	33779.20
548.64	33650.17
548.84	33652.22
549.04	33635.84
549.24	33551.87
549.45	33568.26
549.65	33904.12
549.85	33869.31
550.05	33818.11
550.25	33766.91
550.45	34698.73
550.66	33805.82
550.86	34041.34
551.06	34283.00
551.26	34387.44
551.46	34239.99
551.66	34285.04
551.87	34153.97
552.07	34446.83
552.27	34156.02
552.47	34672.11
552.67	34606.58
552.87	34317.81
553.07	34426.35
553.28	34377.20
553.48	34739.69
553.68	34805.23
553.88	34731.50
554.08	34803.18
554.28	35028.46
554.48	34737.65
554.69	34545.14
554.89	34856.43
555.09	35087.85
555.29	34827.76
555.49	35001.83
555.69	35366.37
555.89	34919.92
556.10	35241.45
556.30	34878.96
556.50	35120.62
556.70	35218.92
556.90	35569.12
557.10	35333.60
557.30	35065.32
557.50	35675.62
557.70	34911.72
557.91	35388.90
558.11	35112.42
558.31	35384.80
558.51	35429.86
558.71	35567.07
558.91	35624.42
559.11	35382.76
559.31	35530.21
559.51	35507.68
559.72	35696.10
559.92	35808.73
560.12	35683.81
560.32	35581.41
560.52	35538.40
560.72	36060.63
560.92	35747.29
561.12	35573.22
561.32	36105.69
561.52	35827.17
561.72	36214.23
561.93	35544.55
562.13	35763.68
562.33	35796.45
562.53	36201.94
562.73	35677.66
562.93	36050.39
563.13	36064.73
563.33	36273.62
563.53	35886.56
563.73	35636.70
563.93	36308.44
564.13	36419.03
564.33	36027.87
564.53	35995.10
564.74	36171.22
564.94	36072.92
565.14	36384.21
565.34	36267.48
565.54	36511.19
565.74	36197.85
565.94	36890.06
566.14	36650.45
566.34	36160.98
566.54	36869.58
566.74	36238.81
566.94	36380.12
567.14	36765.14
567.34	36312.53
567.54	36556.24
567.74	36419.03
567.94	36376.02
568.14	36746.70
568.34	36951.50
568.54	36691.41
568.74	36537.81
568.94	36541.91
569.14	37150.15
569.34	36996.56
569.54	36806.09
569.75	36543.95
569.95	36802.00
570.15	37060.04
570.35	36789.71
570.55	36562.39
570.75	36916.68
570.95	37021.13
571.15	37027.28
571.35	37166.54
571.55	37141.96
571.75	37201.35
571.95	37111.24
572.15	36924.88
572.35	37647.81
572.55	37004.75
572.75	37281.22
572.95	37393.86
573.15	37506.50
573.35	36976.08
573.55	37303.75
573.75	37819.84
573.95	37434.82
574.15	37596.61
574.35	37205.45
574.55	37318.09
574.75	37572.03
574.95	37465.54
575.15	37461.44
575.34	37627.33
575.54	37895.61
575.74	38122.94
575.94	37879.23
576.14	37492.16
576.34	37905.85
576.54	38309.30
576.74	38049.21
576.94	37547.46
577.14	37803.46
577.34	38215.10
577.54	37768.64
577.74	38167.99
577.94	38063.55
578.14	38249.91
578.34	38245.82
578.54	37823.93
578.74	38077.88
578.94	38442.42
579.14	37696.96
579.34	38274.49
579.54	38428.09
579.74	38294.97
579.94	38221.24
580.13	38315.45
580.33	38634.93
580.53	38520.24
580.73	38499.76
580.93	38462.90
581.13	38776.24
581.33	38495.67
581.53	38884.78
581.73	38696.37
581.93	38395.32
582.13	38753.71
582.33	39366.06
582.53	38804.91
582.73	38931.89
582.92	39136.68
583.12	38876.59
583.32	39013.80
583.52	38954.41
583.72	39314.86
583.92	39044.52
584.12	39269.80
584.32	39331.24
584.52	39513.51
584.72	39329.19
584.92	39800.22
585.11	39757.22
585.31	39296.42
585.51	39333.29
585.71	38970.80
585.91	40027.55
586.11	39454.12
586.31	39065.00
586.51	39232.94
586.71	39554.47
586.91	39814.56
587.10	39658.91
587.30	39599.52
587.50	39734.69
587.70	39785.89
587.90	39710.11
588.10	39974.30
588.30	40009.12
588.50	40013.21
588.69	40275.35
588.89	39929.25
589.09	40082.84
589.29	39761.31
589.49	40373.66
589.69	40074.65
589.89	40191.39
590.08	40172.96
590.28	39904.67
590.48	39931.29
590.68	39986.59
590.88	40172.96
591.08	40015.26
591.28	40162.72
591.47	40676.76
591.67	40334.74
591.87	40156.57
592.07	40398.23
592.27	40467.86
592.47	40654.23
592.67	40508.82
592.86	40527.25
593.06	40431.00
593.26	40555.93
593.46	40547.73
593.66	40656.28
593.86	40662.42
594.05	40557.97
594.25	41014.67
594.45	40261.02
594.65	40639.89
594.85	40514.97
595.05	40664.47
595.24	40959.38
595.44	40596.88
595.64	40813.97
595.84	40930.70
596.04	40859.02
596.23	41041.29
596.43	41031.05
596.63	40775.06
596.83	41008.53
597.03	41442.70
597.22	41192.84
597.42	41293.19
597.62	41614.72
597.82	41364.87
598.02	40940.94
598.21	41444.74
598.41	41270.67
598.61	41237.90
598.81	41330.06
599.01	41418.12
599.20	41436.55
599.40	40846.74
599.60	41784.71
599.80	41317.77
600.00	41872.77
600.19	41805.19
600.39	41209.23
600.59	41567.62
600.79	41577.86
600.98	41713.03
601.18	42057.09
601.38	41901.44
601.58	41823.62
601.78	41672.07
601.97	41489.80
602.17	42116.48
602.37	42792.31
602.57	41883.01
602.76	41993.60
602.96	41538.95
603.16	41991.55
603.36	42083.71
603.55	42093.95
603.75	42044.80
603.95	41960.83
604.15	42409.34
604.34	42255.74
604.54	42452.34
604.74	42589.56
604.94	42478.97
605.13	42478.97
605.33	42175.87
605.53	42356.09
605.73	42560.89
605.92	41809.28
606.12	42777.97
606.32	42784.12
606.52	42564.98
606.71	42640.76
606.91	42825.07
607.11	42315.13
607.30	42560.89
607.50	42663.28
607.70	42538.36
607.90	42599.80
608.09	42962.29
608.29	42726.77
608.49	42749.30
608.68	42448.25
608.88	42872.18
609.08	42730.87
609.28	42659.19
609.47	43046.26
609.67	43222.38
609.87	42716.53
610.06	42784.12
610.26	42552.69
610.46	42737.01
610.66	43162.99
610.85	42810.74
611.05	42870.13
611.25	43292.01
611.44	43332.97
611.64	42651.00
611.84	42851.70
612.03	42739.06
612.23	43165.04
612.43	43255.15
612.62	42204.54
612.82	43015.54
613.02	43144.56
613.21	43103.60
613.41	43003.25
613.61	43105.65
613.80	42880.37
614.00	43050.35
614.20	42831.22
614.39	42896.75
614.59	43304.30
614.79	42980.72
614.98	42890.61
615.18	43009.39
615.38	42982.77
615.57	42804.59
615.77	43558.25
615.97	43189.61
616.16	43015.54
616.36	43113.84
616.56	43244.91
616.75	43117.93
616.95	42616.18
617.15	42732.92
617.34	43070.83
617.54	42827.12
617.74	43103.60
617.93	42866.03
618.13	42734.96
618.32	43003.25
618.52	42677.62
618.72	42851.70
618.91	43042.16
619.11	42630.52
619.31	42806.64
619.50	42970.48
619.70	42501.50
619.90	42614.13
620.09	42726.77
620.29	42788.21
620.48	42855.79
620.68	43033.97
620.88	42534.26
621.07	42550.65
621.27	42886.51
621.46	42679.67
621.66	42630.52
621.86	42485.11
622.05	42460.54
622.25	43216.24
622.44	42800.50
622.64	42689.91
622.84	43001.20
623.03	42335.61
623.23	42667.38
623.42	42683.76
623.62	42857.84
623.82	42906.99
624.01	42440.06
624.21	42765.68
624.40	42466.68
624.60	42644.85
624.80	42825.07
624.99	42421.62
625.19	42329.47
625.38	42691.96
625.58	42489.21
625.77	42677.62
625.97	42194.30
626.17	42229.12
626.36	42390.91
626.56	42671.48
626.75	42136.96
626.95	42837.36
627.14	42546.55
627.34	42524.02
627.54	42841.46
627.73	42644.85
627.93	42265.98
628.12	42263.93
628.32	42442.10
628.51	42452.34
628.71	42259.84
628.90	42452.34
629.10	42222.97
629.30	42354.04
629.49	42382.71
629.69	42280.31
629.88	42282.36
630.08	42327.42
630.27	42442.10
630.47	42247.55
630.66	42349.95
630.86	42263.93
631.05	42093.95
631.25	42519.93
631.44	42378.62
631.64	42102.14
631.84	42165.63
632.03	42820.98
632.23	42182.01
632.42	42642.81
632.62	42485.11
632.81	42081.66
633.01	42057.09
633.20	42204.54
633.40	41956.74
633.59	42521.98
633.79	41829.76
633.98	42354.04
634.18	42360.19
634.37	42163.58
634.57	42120.57
634.76	42876.27
634.96	42259.84
635.15	42278.27
635.35	42497.40
635.54	42179.96
635.74	42726.77
635.93	41964.93
636.13	42679.67
636.32	42206.59
636.52	41940.35
636.71	42200.44
636.91	42749.30
637.10	42530.17
637.30	42290.55
637.49	42421.62
637.69	42059.13
637.88	42423.67
638.08	42354.04
638.27	42284.41
638.46	42323.32
638.66	42059.13
638.85	42534.26
639.05	42536.31
639.24	42325.37
639.44	42386.81
639.63	42151.29
639.83	42161.53
640.02	42481.02
640.22	42268.03
640.41	42380.67
640.61	42448.25
640.80	42155.39
640.99	42208.64
641.19	42767.73
641.38	42120.57
641.58	42343.80
641.77	42077.57
641.97	42175.87
642.16	42292.60
642.36	42665.33
642.55	42259.84
642.74	41835.91
642.94	42929.52
643.13	41704.84
643.33	42194.30
643.52	42593.65
643.72	42646.90
643.91	42292.60
644.10	42548.60
644.30	42595.70
644.49	41883.01
644.69	42268.03
644.88	41991.55
645.08	42231.16
645.27	42089.85
645.46	42136.96
645.66	42452.34
645.85	42087.81
646.05	42182.01
646.24	42276.22
646.43	42200.44
646.63	42622.33
646.82	42773.88
647.02	42202.49
647.21	42644.85
647.40	42249.60
647.60	42863.99
647.79	42605.94
647.99	42409.34
648.18	42081.66
648.37	42333.56
648.57	42798.45
648.76	42448.25
648.96	42227.07
649.15	42515.83
649.34	42337.66
649.54	42474.87
649.73	42110.33
649.92	42433.91
650.12	42141.05
650.31	42620.28
650.51	42476.92
650.70	42409.34
650.89	42020.22
651.09	42431.86
651.28	42208.64
651.47	42397.05
651.67	42382.71
651.86	42571.13
652.06	42206.59
652.25	42571.13
652.44	42427.77
652.64	42429.82
652.83	42202.49
653.02	42159.48
653.22	42034.56
653.41	42509.69
653.60	41962.88
653.80	42210.68
653.99	42575.22
654.18	42513.78
654.38	42128.77
654.57	42401.14
654.76	42417.53
654.96	42026.37
655.15	42343.80
655.34	42517.88
655.54	42005.89
655.73	42126.72
655.92	42315.13
656.12	42151.29
656.31	42435.96
656.50	42440.06
656.70	42171.77
656.89	42302.84
657.08	42501.50
657.28	42087.81
657.47	42104.19
657.66	42130.81
657.86	42192.25
658.05	42497.40
658.24	42231.16
658.43	41667.97
658.63	42304.89
658.82	42222.97
659.01	42341.75
659.21	42419.58
659.40	42401.14
659.59	41870.72
659.79	42270.08
659.98	42036.61
660.17	42255.74
660.36	42061.18
660.56	42339.71
660.75	42132.86
660.94	42378.62
661.14	42288.51
661.33	42413.43
661.52	41674.12
661.71	42239.36
661.91	42063.23
662.10	41962.88
662.29	42038.65
662.49	42061.18
662.68	42360.19
662.87	42075.52
663.06	41850.24
663.26	42562.93
663.45	41948.54
663.64	42417.53
663.83	42145.15
664.03	42038.65
664.22	42202.49
664.41	41926.02
664.60	42294.65
664.80	41813.38
664.99	41880.96
665.18	41534.85
665.37	42087.81
665.57	42130.81
665.76	42050.94
665.95	41975.17
666.14	41891.20
666.34	41827.71
666.53	41520.52
666.72	41854.34
666.91	41416.07
667.11	41774.47
667.30	41504.13
667.49	41764.23
667.68	41663.88
667.87	41393.54
668.07	42104.19
668.26	41790.85
668.45	41842.05
668.64	41526.66
668.84	42196.35
669.03	41596.29
669.22	41448.84
669.41	41612.68
669.60	41573.77
669.80	41555.33
669.99	41794.95
670.18	41870.72
670.37	41577.86
670.57	41973.12
670.76	41264.52
670.95	41969.02
671.14	41475.46
671.33	41309.58
671.53	41815.43
671.72	41602.44
671.91	41065.87
672.10	41366.92
672.29	41594.25
672.48	41735.56
672.68	41655.68
672.87	41338.25
673.06	41375.11
673.25	40822.16
673.44	41278.86
673.64	41282.95
673.83	41139.60
674.02	41282.95
674.21	41119.12
674.40	41184.65
674.59	41043.34
674.79	41254.28
674.98	41098.64
675.17	41246.09
675.36	41207.18
675.55	41285.00
675.74	41364.87
675.94	41229.71
676.13	40918.42
676.32	41203.08
676.51	41500.04
676.70	40975.76
676.89	41072.01
677.08	41489.80
677.28	41055.63
677.47	40926.61
677.66	41227.66
677.85	41123.21
678.04	40988.05
678.23	40752.53
678.42	41383.30
678.62	40695.19
678.81	41342.35
679.00	40797.59
679.19	40928.66
679.38	40797.59
679.57	40598.93
679.76	40674.71
679.96	41090.44
680.15	40830.35
680.34	40992.14
680.53	40445.33
680.72	41067.92
680.91	41252.23
681.10	40441.24
681.29	40893.84
681.48	40742.29
681.68	40674.71
681.87	40383.90
682.06	40562.07
682.25	40168.86
682.44	40424.86
682.63	40687.00
682.82	40336.79
683.01	40166.81
683.20	40299.93
683.39	40433.05
683.59	40084.89
683.78	40492.44
683.97	40103.32
684.16	40295.83
684.35	40099.23
684.54	40267.16
684.73	40011.17
684.92	40050.08
685.11	40050.08
685.30	40134.04
685.49	40471.96
685.69	40209.82
685.88	40033.69
686.07	40175.00
686.26	40041.88
686.45	39933.34
686.64	39941.53
686.83	39890.34
687.02	40082.84
687.21	40084.89
687.40	39736.74
687.59	39835.04
687.78	40117.66
687.97	39749.03
688.16	40261.02
688.35	39847.33
688.54	39226.79
688.74	39763.36
688.93	39490.98
689.12	39597.48
689.31	39773.60
689.50	39677.35
689.69	39034.28
689.88	39361.96
690.07	39904.67
690.26	39577.00
690.45	39667.11
690.64	39341.48
690.83	39507.37
691.02	39447.97
691.21	39665.06
691.40	39433.64
691.59	39470.50
691.78	38991.28
691.97	39357.86
692.16	39126.44
692.35	39402.92
692.54	39280.04
692.73	39202.22
692.92	39038.38
693.11	39314.86
693.30	39255.46
693.49	39173.55
693.68	39044.52
693.87	39183.79
694.06	39009.71
694.25	38985.13
694.44	39011.76
694.63	38929.84
694.82	39062.96
695.01	39155.11
695.20	38970.80
695.39	38987.18
695.58	38647.22
695.77	38802.86
695.96	38528.44
696.15	38622.64
696.34	38686.13
696.53	38581.68
696.72	38731.18
696.91	38432.18
697.10	38776.24
697.29	38370.74
697.48	38694.32
697.67	38467.00
697.86	38309.30
698.05	38393.27
698.24	38557.11
698.43	38036.92
698.62	38378.93
698.81	38428.09
699.00	38100.41
699.19	37944.76
699.38	38231.48
699.57	38000.06
699.76	38589.88
699.95	37932.48
700.14	38292.92
700.32	38075.84
700.51	37871.04
700.70	38219.19
700.89	37934.53
701.08	37836.22
701.27	37664.19
701.46	37969.34
701.65	37551.56
701.84	37858.75
702.03	37924.29
702.22	37993.92
702.41	37553.60
702.60	37983.68
702.79	37621.19
702.98	37266.89
703.17	37768.64
703.35	37459.40
703.54	37289.42
703.73	37490.12
703.92	37674.43
704.11	37703.10
704.30	37187.02
704.49	37344.71
704.68	37273.03
704.87	37084.62
705.06	36650.45
705.25	37236.17
705.43	37619.14
705.62	37422.53
705.81	37225.93
706.00	37361.09
706.19	37078.47
706.38	36718.03
706.57	36761.04
706.76	37123.53
706.95	36978.12
707.14	36832.72
707.32	36990.41
707.51	36718.03
707.70	37041.61
707.89	36601.30
708.08	36928.97
708.27	36976.08
708.46	36746.70
708.65	36836.81
708.84	36523.47
709.02	36881.87
709.21	36707.79
709.40	36730.32
709.59	36599.25
709.78	36380.12
709.97	36617.68
710.16	36156.89
710.34	36287.96
710.53	36226.52
710.72	35993.05
710.91	36443.60
711.10	36367.83
711.29	36308.44
711.48	35954.14
711.66	35972.57
711.85	35605.98
712.04	36191.70
712.23	36173.27
712.42	36177.37
712.61	35616.22
712.80	36083.16
712.98	35796.45
713.17	35581.41
713.36	35700.19
713.55	36005.34
713.74	35616.22
713.93	35878.36
714.11	35923.42
714.30	35554.79
714.49	35517.92
714.68	35786.21
714.87	35671.52
715.06	35780.06
715.24	35333.60
715.43	35411.43
715.62	35173.86
715.81	35452.39
716.00	35548.64
716.18	35431.91
716.37	35339.75
716.56	35153.38
716.75	35573.22
716.94	35366.37
717.12	35014.12
717.31	35014.12
717.50	34776.56
717.69	35059.18
717.88	35100.14
718.06	34883.05
718.25	35071.46
718.44	34946.54
718.63	35169.77
718.82	34708.97
719.00	35118.57
719.19	34483.70
719.38	34717.17
719.57	34436.59
719.76	34612.72
719.94	34174.45
720.13	34199.03
720.32	34328.05
720.51	34278.90
720.69	34262.52
720.88	33885.69
721.07	34174.45
721.26	33635.84
721.44	34041.34
721.63	34256.37
721.82	34049.53
722.01	33940.99
722.20	34196.98
722.38	34049.53
722.57	33977.85
722.76	33662.46
722.95	33850.88
723.13	33226.24
723.32	33822.20
723.51	33328.64
723.70	33365.51
723.88	33666.56
724.07	33478.15
724.26	33383.94
724.44	33140.23
724.63	33502.72
724.82	33299.97
725.01	33385.99
725.19	33342.98
725.38	33312.26
725.57	32847.37
725.76	33070.60
725.94	33054.22
726.13	32751.12
726.32	32994.82
726.51	33031.69
726.69	32992.78
726.88	33168.90
727.07	33068.55
727.25	32955.91
727.44	33015.30
727.63	32767.50
727.82	33107.46
728.00	32925.19
728.19	32814.60
728.38	32833.04
728.56	32695.82
728.75	32779.79
728.94	32847.37
729.12	32908.81
729.31	32701.96
729.50	32937.48
729.69	32706.06
729.87	32460.30
730.06	32308.76
730.25	32618.00
730.43	32665.10
730.62	32142.87
730.81	32493.07
730.99	32751.12
731.18	32630.29
731.37	32570.90
731.55	32624.14
731.74	32443.92
731.93	32572.94
732.11	32173.59
732.30	32210.45
732.49	32329.23
732.67	32368.15
732.86	32050.71
733.05	32249.36
733.23	31860.25
733.42	32126.49
733.61	32054.81
733.79	31921.69
733.98	32517.65
734.17	32040.47
734.35	32343.57
734.54	32157.21
734.73	32075.29
734.91	32106.01
735.10	31659.55
735.29	32290.32
735.47	32118.29
735.66	32036.38
735.84	31733.28
736.03	31706.65
736.22	31786.52
736.40	31870.49
736.59	31741.47
736.78	31903.26
736.96	32065.05
737.15	31862.30
737.33	31512.10
737.52	31747.61
737.71	31577.63
737.89	31622.69
738.08	31428.13
738.27	31491.62
738.45	31573.53
738.64	31868.44
738.82	31290.91
739.01	31612.45
739.20	31305.25
739.38	31358.50
739.57	31477.28
739.75	31452.70
739.94	31526.43
740.13	31383.07
740.31	31215.14
740.50	31125.03
740.68	31393.31
740.87	31202.85
741.06	31084.07
741.24	31325.73
741.43	30920.23
741.61	30950.95
741.80	31063.59
741.99	30727.72
742.17	30975.53
742.36	30830.12
742.54	30948.90
742.73	30928.42
742.91	31114.79
743.10	30721.58
743.29	31041.06
743.47	31143.46
743.66	30629.42
743.84	30879.27
744.03	30656.04
744.21	30727.72
744.40	30955.05
744.59	30912.04
744.77	30742.06
744.96	30920.23
745.14	30555.69
745.33	30625.32
745.51	30232.11
745.70	30570.03
745.88	30555.69
746.07	30623.28
746.26	30436.91
746.44	30801.45
746.63	30365.23
746.81	30289.46
747.00	29922.87
747.18	30600.75
747.37	30328.37
747.55	30264.88
747.74	30371.38
747.92	29931.06
748.11	30326.32
748.29	30197.30
748.48	30334.51
748.66	30307.89
748.85	30215.73
749.03	30004.79
749.22	30111.28
749.41	30178.87
749.59	30371.38
749.78	30260.79
749.96	29871.67
750.15	29957.69
750.33	29916.73
750.52	29711.93
750.70	30047.80
750.89	29730.36
751.07	29832.76
751.26	29728.31
751.44	29374.02
751.63	29759.03
751.81	29531.71
752.00	29609.53
752.18	29470.27
752.37	29404.74
752.55	29474.37
752.74	29326.91
752.92	29273.67
753.10	29484.61
753.29	29437.50
753.47	29249.09
753.66	28982.85
753.84	29648.44
754.03	29310.53
754.21	29105.73
754.40	29513.28
754.58	29204.03
754.77	29158.98
754.95	29314.62
755.14	29054.53
755.32	28849.74
755.51	28759.63
755.69	29304.38
755.88	28829.26
756.06	29029.96
756.24	29091.40
756.43	28880.46
756.61	29009.48
756.80	28886.60
756.98	28593.74
757.17	29103.68
757.35	28735.05
757.54	29152.84
757.72	28847.69
757.90	28833.35
758.09	28757.58
758.27	28841.54
758.46	28300.88
758.64	28771.91
758.83	28567.12
759.01	28472.91
759.19	28376.66
759.38	28356.18
759.56	28730.95
759.75	28538.44
759.93	28255.82
760.12	28350.03
760.30	28470.86
760.48	28278.35
760.67	28540.49
760.85	28415.57
761.04	28505.68
761.22	28079.70
761.40	28370.51
761.59	28208.72
761.77	27919.96
761.96	27946.58
762.14	28042.84
762.32	27962.97
762.51	27797.08
762.69	27983.44
762.88	27946.58
763.06	28051.03
763.24	28239.44
763.43	28059.22
763.61	27772.50
763.80	27936.34
763.98	27584.09
764.16	28014.16
764.35	27487.84
764.53	27135.59
764.72	27633.24
764.90	27879.00
765.08	27393.63
765.27	27588.19
765.45	27573.85
765.63	27491.93
765.82	27680.35
766.00	27389.53
766.18	27217.50
766.37	27373.15
766.55	27225.70
766.74	27358.81
766.92	27498.08
767.10	27176.55
767.29	27235.94
767.47	26867.30
767.65	27225.70
767.84	26955.36
768.02	27201.12
768.20	27059.81
768.39	26951.27
768.57	27094.63
768.75	26920.55
768.94	26744.42
769.12	26861.16
769.30	26926.69
769.49	26959.46
769.67	26271.34
769.85	26752.62
770.04	26752.62
770.22	26752.62
770.40	26541.68
770.59	26572.39
770.77	26580.59
770.95	26584.68
771.14	26629.74
771.32	26326.64
771.50	26222.19
771.69	26494.57
771.87	26646.12
772.05	26345.07
772.24	26175.09
772.42	26209.90
772.60	25960.05
772.78	26304.11
772.97	26222.19
773.15	26222.19
773.33	26193.52
773.52	25970.29
773.70	26236.53
773.88	26136.18
774.07	25800.31
774.25	26148.46
774.43	26332.78
774.61	26470.00
774.80	26236.53
774.98	26457.71
775.16	26091.12
775.34	26277.49
775.53	25898.61
775.71	26295.92
775.89	26109.55
776.08	26060.40
776.26	26195.57
776.44	26297.97
776.62	26183.28
776.81	25996.92
776.99	26052.21
777.17	26158.70
777.35	26277.49
777.54	26201.71
777.72	26025.59
777.90	26185.33
778.08	26545.77
778.27	26166.90
778.45	26404.46
778.63	26553.96
778.81	26158.70
779.00	26205.81
779.18	26386.03
779.36	26230.38
779.54	26386.03
779.73	26238.58
779.91	26627.69
780.09	26390.13
780.27	26410.60
780.46	26240.62
780.64	26564.20
780.82	26517.10
781.00	26660.46
781.19	26797.67
781.37	26416.75
781.55	26578.54
781.73	26771.05
781.91	26250.86
782.10	26232.43
782.28	26560.11
782.46	26519.15
782.64	26797.67
782.82	26543.72
783.01	26756.71
783.19	26801.77
783.37	26885.73
783.55	26562.15
783.74	26822.25
783.92	26515.05
784.10	26986.08
784.28	26562.15
784.46	26228.34
784.64	26044.02
784.83	26439.28
785.01	26560.11
785.19	26214.00
785.37	26721.90
785.55	26535.53
785.74	26461.80
785.92	26230.38
786.10	26316.40
786.28	26369.65
786.46	26324.59
786.64	26150.51
786.83	26349.17
787.01	26527.34
787.19	25917.04
787.37	26523.24
787.55	26480.24
787.74	26105.46
787.92	26132.08
788.10	26232.43
788.28	26035.83
788.46	26119.79
788.64	25831.03
788.82	25925.24
789.01	26166.90
789.19	26373.74
789.37	26076.79
789.55	26175.09
789.73	25495.16
789.91	25724.54
790.09	25724.54
790.28	26023.54
790.46	25566.84
790.64	25806.45
790.82	25681.53
791.00	25577.08
791.18	25419.39
791.36	25462.40
791.55	25603.71
791.73	25441.92
791.91	25304.70
792.09	25550.46
792.27	25390.72
792.45	25235.07
792.63	25013.89
792.81	25331.33
793.00	25052.80
793.18	25063.04
793.36	25026.18
793.54	24805.00
793.72	24706.70
793.90	24952.45
794.08	24807.05
794.26	24710.79
794.44	24577.67
794.62	24610.44
794.81	24645.26
794.99	24442.51
795.17	24505.99
795.35	24358.54
795.53	24573.58
795.71	24391.31
795.89	24063.63
796.07	24043.15
796.25	23944.85
796.43	24278.67
796.61	24123.02
796.80	23860.88
796.98	23883.41
797.16	23950.99
797.34	24186.51
797.52	23674.52
797.70	24030.87
797.88	23795.35
798.06	23570.07
798.24	23733.91
798.42	23674.52
798.60	23379.61
798.78	23639.70
798.96	23406.23
799.14	23365.28
799.32	23355.04
799.51	23389.85
799.69	23355.04
799.87	23283.36
800.05	23148.19
800.23	23051.94
800.41	22906.53
800.59	23043.74
800.77	23000.74
800.95	22728.36
801.13	22898.34
801.31	22996.64
801.49	22939.30
801.67	22658.73
801.85	22447.79
802.03	22566.57
802.21	22312.62
802.39	22556.33
802.57	22279.85
802.75	22277.80
802.93	22245.04
803.11	22357.67
803.29	22331.05
803.47	22025.90
803.65	22013.62
803.83	22369.96
804.01	22318.76
804.19	21829.30
804.37	21769.91
804.55	21972.66
804.73	21835.44
804.91	21503.67
805.09	21675.70
805.27	21739.19
805.45	21657.27
805.63	21466.81
805.81	21669.56
805.99	21915.31
806.17	21665.46
806.35	21755.57
806.53	21454.52
806.71	21612.21
806.89	21561.02
807.07	21305.02
807.25	21219.00
807.43	21477.05
807.61	21280.44
807.79	21223.10
807.97	21044.93
808.15	21069.50
808.33	20760.26
808.51	20846.27
808.69	21186.24
808.87	20862.66
809.05	20739.78
809.23	20618.95
809.41	20682.44
809.59	20758.21
809.77	20813.51
809.95	20475.59
810.13	20604.61
810.31	20530.89
810.49	20266.70
810.67	20281.03
810.84	20444.87
811.02	20391.62
811.20	19986.13
811.38	20471.50
811.56	19924.69
811.74	19953.36
811.92	20174.54
812.10	20141.77
812.28	20246.22
812.46	20010.70
812.64	20170.44
812.82	19990.22
813.00	19930.83
813.18	20039.37
813.36	19824.34
813.53	19814.10
813.71	19803.86
813.89	19691.22
814.07	19822.29
814.25	20258.51
814.43	19439.32
814.61	19875.54
814.79	19543.77
814.97	19738.32
815.15	19609.30
815.33	19078.88
815.50	19281.63
815.68	19433.18
815.86	19672.79
816.04	19236.57
816.22	19117.79
816.40	19195.61
816.58	19293.91
816.76	18927.33
816.94	18943.71
817.11	19021.53
817.29	19177.18
817.47	18890.46
817.65	19175.13
817.83	18880.22
818.01	18960.09
818.19	18845.41
818.37	18970.33
818.54	18689.76
818.72	18765.54
818.90	18925.28
819.08	18745.06
819.26	18810.59
819.44	18511.59
819.62	18589.41
819.80	18423.53
819.97	18683.62
820.15	18577.12
820.33	18384.62
820.51	18392.81
820.69	18231.02
820.87	18548.45
821.05	18452.20
821.22	18310.89
821.40	18386.66
821.58	18276.07
821.76	18114.28
821.94	18194.15
822.12	18224.87
822.29	18525.93
822.47	18128.62
822.65	18327.27
822.83	18198.25
823.01	17987.31
823.19	17819.38
823.36	17901.29
823.54	17880.82
823.72	17936.11
823.90	17737.46
824.08	17680.11
824.25	18001.65
824.43	17716.98
824.61	17635.06
824.79	17665.78
824.97	17639.15
825.15	18048.75
825.32	17714.93
825.50	17483.51
825.68	17524.47
825.86	17868.53
826.04	17610.48
826.21	17542.90
826.39	17471.22
826.57	17288.95
826.75	17395.45
826.93	17262.33
827.10	17420.02
827.28	17465.08
827.46	17153.79
827.64	17190.65
827.81	17360.63
827.99	17319.67
828.17	17247.99
828.35	17151.74
828.53	17381.11
828.70	17194.75
828.88	17043.20
829.06	17161.98
829.24	16910.08
829.41	17078.01
829.59	17055.48
829.77	16862.97
829.95	17004.28
830.12	17024.76
830.30	16795.39
830.48	17000.19
830.66	17116.92
830.84	16850.69
831.01	16727.81
831.19	16781.06
831.37	16656.13
831.55	16490.24
831.72	16686.85
831.90	16537.35
832.08	16611.07
832.25	16373.51
832.43	16590.59
832.61	16541.44
832.79	16178.95
832.96	16547.59
833.14	16162.57
833.32	16393.99
833.50	16477.96
833.67	16410.37
833.85	16326.41
834.03	16115.47
834.20	16336.65
834.38	16273.16
834.56	16301.83
834.74	15914.77
834.91	16133.90
835.09	15943.44
835.27	16056.08
835.44	15888.14
835.62	15642.39
835.80	15949.58
835.98	16258.82
836.15	16129.80
836.33	15906.57
836.51	16043.79
836.68	15626.00
836.86	15931.15
837.04	15953.68
837.21	15922.96
837.39	15892.24
837.57	15912.72
837.75	15939.34
837.92	15664.91
838.10	15752.98
838.28	15511.32
838.45	15746.83
838.63	15652.63
838.81	15859.47
838.98	15544.08
839.16	15460.12
839.34	15664.91
839.51	15718.16
839.69	15476.50
839.87	15456.02
840.04	15359.77
840.22	15808.27
840.40	15419.16
840.57	15167.26
840.75	15435.54
840.93	15214.36
841.10	15339.29
841.28	15476.50
841.46	15173.40
841.63	15154.97
841.81	15128.35
841.98	15154.97
842.16	15175.45
842.34	15265.56
842.51	15011.61
842.69	15128.35
842.87	15179.54
843.04	15281.94
843.22	14921.50
843.40	15232.79
843.57	15044.38
843.75	15159.06
843.92	14931.74
844.10	14735.14
844.28	15054.62
844.45	15142.68
844.63	14901.02
844.81	14661.41
844.98	14933.79
845.16	14765.85
845.33	14720.80
845.51	14790.43
845.69	14935.84
845.86	14778.14
846.04	14714.66
846.21	14630.69
846.39	14622.50
846.57	14454.56
846.74	14702.37
846.92	14595.87
847.09	14661.41
847.27	14528.29
847.45	14434.08
847.62	14583.59
847.80	14429.99
847.97	14450.47
848.15	14575.39
848.32	14395.17
848.50	14346.02
848.68	14354.21
848.85	14350.12
849.03	14255.91
849.20	14286.63
849.38	14380.84
849.56	14327.59
849.73	14176.04
849.91	14300.97
850.08	14356.26
850.26	14022.44
850.43	14251.81
850.61	14192.42
850.78	14024.49
850.96	14305.06
851.14	14083.88
851.31	14051.11
851.49	14053.16
851.66	14044.97
851.84	14049.07
852.01	14130.98
852.19	14139.18
852.36	13989.67
852.54	13778.73
852.71	13823.79
852.89	13979.43
853.07	13963.05
853.24	13885.23
853.42	13678.38
853.59	13688.62
853.77	13797.17
853.94	13711.15
854.12	13913.90
854.29	13616.94
854.47	13739.82
854.64	13881.13
854.82	13850.41
854.99	13801.26
855.17	13594.42
855.34	13461.30
855.52	13461.30
855.69	13727.53
855.87	13614.90
856.04	13473.59
856.22	13780.78
856.39	13446.96
856.57	13393.72
856.74	13330.23
856.92	13494.07
857.09	13520.69
857.27	13418.29
857.44	13147.96
857.62	13580.08
857.79	13346.61
857.97	13367.09
858.14	13401.91
858.32	13207.35
858.49	13238.07
858.67	13129.53
858.84	13317.94
859.02	13170.49
859.19	13154.10
859.37	13100.86
859.54	13080.38
859.72	13203.25
859.89	13315.89
860.06	13301.56
860.24	13098.81
860.41	13043.51
860.59	12881.72
860.76	12947.26
860.94	13076.28
861.11	12875.58
861.29	13041.46
861.46	13113.14
861.64	12758.85
861.81	12791.61
861.98	13039.42
862.16	12715.84
862.33	12738.37
862.51	12885.82
862.68	12793.66
862.86	12660.54
863.03	12740.41
863.21	12719.93
863.38	12777.28
863.55	12695.36
863.73	12525.38
863.90	12791.61
864.08	12508.99
864.25	12455.75
864.43	12554.05
864.60	12668.73
864.77	12521.28
864.95	12519.23
865.12	12420.93
865.30	12347.20
865.47	12365.64
865.64	12408.64
865.82	12531.52
865.99	12447.55
866.17	12263.24
866.34	12433.22
866.51	12267.33
866.69	12404.55
866.86	12166.98
867.04	12144.45
867.21	12230.47
867.38	12105.54
867.56	12316.48
867.73	12240.71
867.91	11986.76
868.08	12123.98
868.25	12058.44
868.43	12021.58
868.60	12068.68
868.78	12025.67
868.95	12220.23
869.12	12298.05
869.30	12027.72
869.47	11900.75
869.64	11816.78
869.82	11972.43
869.99	11859.79
870.16	11935.56
870.34	11978.57
870.51	11767.63
870.69	11667.28
870.86	11663.18
871.03	11577.17
871.21	11687.76
871.38	11472.72
871.55	11646.80
871.73	11478.86
871.90	11591.50
872.07	11472.72
872.25	11607.89
872.42	11556.69
872.59	11497.30
872.77	11355.99
872.94	11446.10
873.11	11462.48
873.29	11398.99
873.46	11265.88
873.63	11165.53
873.81	11208.53
873.98	11317.08
874.15	11364.18
874.33	11128.66
874.50	10985.30
874.67	11153.24
874.85	11083.61
875.02	11028.31
875.19	11274.07
875.37	11155.29
875.54	10983.26
875.71	11099.99
875.88	11026.26
876.06	10856.28
876.23	11114.33
876.40	11001.69
876.58	11065.18
876.75	10923.87
876.92	10868.57
877.10	11030.36
877.27	10848.09
877.44	10823.51
877.61	10811.23
877.79	10631.01
877.96	10741.60
878.13	10768.22
878.31	10692.44
878.48	10835.80
878.65	10628.96
878.82	10471.26
879.00	10571.61
879.17	10413.92
879.34	10489.70
879.51	10389.35
879.69	10381.15
879.86	10504.03
880.03	10307.43
880.21	10377.06
880.38	10381.15
880.55	10434.40
880.72	10368.87
880.90	10352.48
881.07	10389.35
881.24	10407.78
881.41	10348.39
881.59	10264.42
881.76	10186.60
881.93	10108.77
882.10	10108.77
882.28	10250.08
882.45	10256.23
882.62	10188.64
882.79	10184.55
882.96	10100.58
883.14	10264.42
883.31	10151.78
883.48	10155.88
883.65	9934.70
883.83	10133.35
884.00	10125.16
884.17	10168.16
884.34	10127.21
884.51	10037.09
884.69	10024.81
884.86	10223.46
885.03	10016.62
885.20	9973.61
885.38	10108.77
885.55	9885.55
885.72	9994.09
885.89	10080.10
886.06	9959.27
886.24	9877.35
886.41	10000.23
886.58	9924.46
886.75	9934.70
886.92	9668.46
887.10	9764.72
887.27	9723.76
887.44	9715.56
887.61	9846.63
887.78	9953.13
887.95	9922.41
888.13	9695.08
888.30	9527.15
888.47	9662.32
888.64	9629.55
888.81	9574.25
888.99	9647.98
889.16	9613.17
889.33	9629.55
889.50	9508.72
889.67	9574.25
889.84	9559.92
890.01	9518.96
890.19	9615.21
890.36	9746.28
890.53	9457.52
890.70	9312.11
890.87	9414.51
891.04	9455.47
891.22	9547.63
891.39	9418.61
891.56	9312.11
891.73	9596.78
891.90	9310.07
892.07	9398.13
892.24	9367.41
892.42	9174.90
892.59	9224.05
892.76	9305.97
892.93	9375.60
893.10	9305.97
893.27	9351.03
893.44	9215.86
893.61	9215.86
893.79	9238.39
893.96	9285.49
894.13	9035.64
894.30	9111.41
894.47	9195.38
894.64	9236.34
894.81	9074.55
894.98	9131.89
895.15	9267.06
895.33	9230.20
895.50	9070.45
895.67	9410.42
895.84	9117.56
896.01	9021.30
896.18	9101.17
896.35	9162.61
896.52	9207.67
896.69	9195.38
896.86	9113.46
897.04	9168.76
897.21	9009.01
897.38	9060.21
897.55	8869.75
897.72	9062.26
897.89	8873.85
898.06	9062.26
898.23	9074.55
898.40	9047.93
898.57	8912.76
898.74	8843.13
898.91	8920.95
899.08	8834.94
899.26	9035.64
899.43	9078.65
899.60	8888.18
899.77	8963.96
899.94	8871.80
900.11	8796.03
900.28	8804.22
900.45	8802.17
900.62	8957.82
900.79	8896.38
900.96	8976.25
901.13	8892.28
901.30	8879.99
901.47	8673.15
901.64	8863.61
901.81	8947.58
901.98	8859.51
902.15	8863.61
902.32	8585.08
902.49	8832.89
902.66	8968.06
902.83	8826.75
903.01	8732.54
903.18	8939.38
903.35	8906.62
903.52	8785.79
903.69	8652.67
903.86	8742.78
904.03	8953.72
904.20	8793.98
904.37	8742.78
904.54	8613.76
904.71	8828.79
904.88	8767.35
905.05	8753.02
905.22	8812.41
905.39	8624.00
905.56	8720.25
905.73	8494.97
905.90	8720.25
906.07	8695.68
906.24	8679.29
906.41	8761.21
906.58	8746.87
906.75	8718.20
906.92	8681.34
907.09	8888.18
907.26	8718.20
907.43	8437.63
907.60	8630.14
907.77	8744.83
907.93	8800.12
908.10	8744.83
908.27	8804.22
908.44	8734.59
908.61	8490.88
908.78	8497.02
908.95	8728.44
909.12	8634.24
909.29	8419.20
909.46	8681.34
909.63	8599.42
909.80	8521.60
909.97	8685.44
910.14	8437.63
910.31	8683.39
910.48	8632.19
910.65	8583.04
910.82	8486.78
910.99	8404.86
911.16	8546.17
911.33	8558.46
911.50	8419.20
911.66	8394.62
911.83	8490.88
912.00	8408.96
912.17	8318.85
912.34	8234.88
912.51	8494.97
912.68	8415.10
912.85	8435.58
913.02	8228.74
913.19	8312.71
913.36	8359.81
913.53	8298.37
913.70	8279.94
913.86	8327.04
914.03	8437.63
914.20	8294.27
914.37	8290.18
914.54	8345.47
914.71	8253.31
914.88	8394.62
915.05	8200.07
915.22	8189.83
915.39	8120.20
915.55	8191.88
915.72	8093.57
915.89	7866.25
916.06	8011.65
916.23	7964.55
916.40	7939.97
916.57	7856.01
916.74	7929.74
916.91	7909.26
917.07	8017.80
917.24	7790.47
917.41	7968.65
917.58	7776.14
917.75	7972.74
917.92	7704.46
918.09	7935.88
918.26	7769.99
918.42	7780.23
918.59	7679.88
918.76	7522.19
918.93	7569.29
919.10	7548.81
919.27	7622.54
919.44	7546.76
919.60	7638.92
919.77	7554.96
919.94	7286.67
920.11	7387.02
920.28	7581.58
920.45	7360.40
920.61	7501.71
920.78	7438.22
920.95	7411.60
921.12	7339.92
921.29	7360.40
921.46	7167.89
921.62	7245.71
921.79	7331.73
921.96	7237.52
922.13	7157.65
922.30	7245.71
922.47	7206.80
922.63	6971.29
922.80	7159.70
922.97	7010.20
923.14	6940.57
923.31	7176.08
923.47	6829.98
923.64	7139.22
923.81	7014.29
923.98	7036.82
924.15	6887.32
924.32	6952.85
924.48	6915.99
924.65	6922.13
924.82	6748.06
924.99	6791.06
925.15	6670.23
925.32	6612.89
925.49	6619.04
925.66	6700.95
925.83	6602.65
925.99	6733.72
926.16	6815.64
926.33	6754.20
926.50	6434.72
926.67	6465.44
926.83	6553.50
927.00	6500.25
927.17	6397.85
927.34	6553.50
927.50	6473.63
927.67	6365.09
927.84	6391.71
928.01	6260.64
928.17	6432.67
928.34	6277.02
928.51	6225.82
928.68	6299.55
928.84	6283.17
929.01	6172.58
929.18	6197.15
929.35	6000.55
929.51	6113.19
929.68	6021.03
929.85	5939.11
930.02	5947.30
930.18	6031.27
930.35	6041.51
930.52	5969.83
930.69	6021.03
930.85	5939.11
931.02	5752.74
931.19	5945.25
931.36	5791.66
931.52	5810.09
931.69	5939.11
931.86	5662.63
932.02	5701.54
932.19	5728.17
932.36	5646.25
932.53	5703.59
932.69	5531.56
932.86	5638.06
933.03	5676.97
933.19	5455.79
933.36	5498.80
933.53	5494.70
933.70	5396.40
933.86	5408.69
934.03	5404.59
934.20	5386.16
934.36	5423.02
934.53	5412.78
934.70	5259.18
934.86	5396.40
935.03	5304.24
935.20	5095.35
935.36	5105.59
935.53	5132.21
935.70	5105.59
935.86	5152.69
936.03	5011.38
936.20	4937.65
936.36	4997.04
936.53	5060.53
936.70	4683.70
936.86	4820.92
937.03	4870.07
937.20	4706.23
937.36	4751.29
937.53	4546.49
937.70	4591.55
937.86	4544.44
938.03	4491.20
938.20	4587.45
938.36	4468.67
938.53	4513.72
938.70	4345.79
938.86	4282.30
939.03	4294.59
939.20	4190.14
939.36	4245.44
939.53	4155.33
939.70	4274.11
939.86	4063.17
940.03	4059.07
940.19	3993.54
940.36	4011.97
940.53	4052.93
940.69	3893.19
940.86	4011.97
941.03	3880.90
941.19	3809.22
941.36	3852.23
941.52	3786.69
941.69	3741.64
941.86	3651.53
942.02	3647.43
942.19	3708.87
942.35	3649.48
942.52	3639.24
942.69	3569.61
942.85	3610.57
943.02	3520.46
943.18	3559.37
943.35	3506.12
943.52	3428.30
943.68	3448.78
943.85	3389.39
944.01	3403.72
944.18	3311.57
944.35	3389.39
944.51	3276.75
944.68	3274.70
944.84	3246.03
945.01	3125.20
945.17	3309.52
945.34	3334.09
945.51	3270.61
945.67	3340.24
945.84	3215.31
946.00	3260.37
946.17	3229.65
946.33	3102.67
946.50	3237.84
946.67	3274.70
946.83	3176.40
947.00	3270.61
947.16	3268.56
947.33	3272.65
947.49	3129.30
947.66	3143.63
947.82	3137.49
947.99	3100.62
948.16	3211.22
948.32	3080.14
948.49	3141.58
948.65	3209.17
948.82	3100.62
948.98	3110.86
949.15	3094.48
949.31	3078.10
949.48	3106.77
949.64	3106.77
949.81	3141.58
949.97	3139.54
950.14	3145.68
950.30	3059.67
950.47	3160.02
950.63	3155.92
950.80	3194.83
950.96	3221.45
951.13	3121.10
951.30	3143.63
951.46	3114.96
951.63	3221.45
951.79	3112.91
951.96	3182.54
952.12	3071.95
952.29	3078.10
952.45	3039.19
952.62	3155.92
952.78	3061.71
952.94	3076.05
953.11	3006.42
953.27	3035.09
953.44	3067.86
953.60	3028.95
953.77	3088.34
953.93	3063.76
954.10	3088.34
954.26	3053.52
954.43	2981.84
954.59	2979.79
954.76	3065.81
954.92	3061.71
955.09	3114.96
955.25	2959.31
955.42	3110.86
955.58	3035.09
955.75	3002.32
955.91	2940.88
956.07	3012.56
956.24	2944.98
956.40	3010.51
956.57	3012.56
956.73	3012.56
956.90	2983.89
957.06	2963.41
957.23	2934.74
957.39	2926.55
957.56	3010.51
957.72	2938.84
957.88	2934.74
958.05	3080.14
958.21	3035.09
958.38	2897.88
958.54	2918.36
958.71	2992.08
958.87	2891.73
959.03	2916.31
959.20	3067.86
959.36	2871.25
959.53	2942.93
959.69	2910.16
959.85	3000.27
960.02	2930.64
960.18	3061.71
960.35	2944.98
960.51	3074.00
960.68	2871.25
960.84	3102.67
961.00	2883.54
961.17	2971.60
961.33	2848.72
961.50	2912.21
961.66	2873.30
961.82	2938.84
961.99	2863.06
962.15	2959.31
962.31	2930.64
962.48	2908.12
962.64	2865.11
962.81	2942.93
962.97	2826.20
963.13	2883.54
963.30	2897.88
963.46	2861.01
963.62	2846.68
963.79	2930.64
963.95	2826.20
964.12	2820.05
964.28	2840.53
964.44	2928.60
964.61	2906.07
964.77	2867.16
964.93	2807.77
965.10	2787.29
965.26	2781.14
965.42	2932.69
965.59	2791.38
965.75	2822.10
965.92	2875.35
966.08	2932.69
966.24	2803.67
966.41	2807.77
966.57	2873.30
966.73	2807.77
966.90	2852.82
967.06	2869.20
967.22	2742.23
967.39	2793.43
967.55	2717.65
967.71	2764.76
967.88	2772.95
968.04	2744.28
968.20	2770.90
968.37	2725.85
968.53	2697.17
968.69	2826.20
968.85	2787.29
969.02	2768.85
969.18	2736.09
969.34	2813.91
969.51	2764.76
969.67	2858.96
969.83	2711.51
970.00	2715.61
970.16	2809.81
970.32	2738.13
970.48	2785.24
970.65	2641.88
970.81	2703.32
970.97	2742.23
971.14	2674.65
971.30	2760.66
971.46	2678.74
971.63	2775.00
971.79	2818.00
971.95	2815.96
972.11	2680.79
972.28	2645.98
972.44	2752.47
972.60	2607.06
972.76	2670.55
972.93	2688.98
973.09	2643.93
973.25	2672.60
973.42	2617.30
973.58	2693.08
973.74	2756.57
973.90	2631.64
974.07	2760.66
974.23	2686.94
974.39	2670.55
974.55	2594.78
974.72	2652.12
974.88	2557.91
975.04	2656.22
975.20	2682.84
975.37	2662.36
975.53	2578.39
975.69	2713.56
975.85	2539.48
976.01	2596.82
976.18	2613.21
976.34	2498.52
976.50	2652.12
976.66	2600.92
976.83	2535.39
976.99	2510.81
977.15	2598.87
977.31	2516.95
977.47	2613.21
977.64	2586.58
977.80	2553.82
977.96	2488.28
978.12	2602.97
978.29	2590.68
978.45	2480.09
978.61	2519.00
978.77	2519.00
978.93	2549.72
979.10	2596.82
979.26	2523.10
979.42	2504.67
979.58	2502.62
979.74	2488.28
979.91	2492.38
980.07	2508.76
980.23	2426.84
980.39	2494.43
980.55	2484.19
980.71	2471.90
980.88	2414.56
981.04	2478.04
981.20	2478.04
981.36	2516.95
981.52	2447.32
981.68	2523.10
981.85	2463.71
982.01	2459.61
982.17	2330.59
982.33	2455.51
982.49	2527.19
982.65	2473.95
982.82	2539.48
982.98	2469.85
983.14	2400.22
983.30	2486.23
983.46	2432.99
983.62	2467.80
983.79	2389.98
983.95	2392.03
984.11	2342.88
984.27	2398.17
984.43	2416.60
984.59	2359.26
984.75	2439.13
984.91	2394.08
985.08	2328.54
985.24	2320.35
985.40	2346.97
985.56	2375.64
985.72	2428.89
985.88	2385.88
986.04	2269.15
986.20	2349.02
986.37	2377.69
986.53	2355.16
986.69	2426.84
986.85	2330.59
987.01	2285.53
987.17	2359.26
987.33	2398.17
987.49	2326.49
987.65	2289.63
987.82	2289.63
987.98	2312.16
988.14	2398.17
988.30	2301.92
988.46	2287.58
988.62	2316.25
988.78	2373.60
988.94	2281.44
989.10	2320.35
989.26	2207.71
989.42	2297.82
989.59	2314.20
989.75	2244.57
989.91	2289.63
990.07	2297.82
990.23	2205.66
990.39	2234.33
990.55	2244.57
990.71	2211.81
990.87	2277.34
991.03	2203.61
991.19	2248.67
991.35	2222.05
991.51	2250.72
991.67	2279.39
991.83	2176.99
992.00	2246.62
992.16	2246.62
992.32	2265.05
992.48	2174.94
992.64	2220.00
992.80	2289.63
992.96	2252.77
993.12	2308.06
993.28	2293.72
993.44	2281.44
993.60	2203.61
993.76	2312.16
993.92	2250.72
994.08	2207.71
994.24	2271.20
994.40	2172.89
994.56	2299.87
994.72	2142.18
994.88	2185.18
995.04	2191.33
995.20	2250.72
995.36	2189.28
995.52	2228.19
995.68	2150.37
995.84	2193.37
996.00	2238.43
996.16	2189.28
996.32	2099.17
996.48	2283.49
996.64	2109.41
996.80	2176.99
996.96	2142.18
997.12	2199.52
997.28	2058.21
997.44	2236.38
997.60	2125.79
997.76	2090.98
997.92	2136.03
998.08	2146.27
998.24	2093.02
998.40	2220.00
998.56	2217.95
998.72	2121.70
998.88	2088.93
999.04	2117.60
999.20	2162.66
999.36	2117.60
999.52	2111.46
999.68	2209.76
999.84	2199.52
1000.00	2181.09
1000.16	2090.98
1000.32	2017.25
1000.48	2205.66
1000.64	2047.97
1000.80	2101.22
1000.95	2099.17
1001.11	2170.85
1001.27	2086.88
1001.43	2275.29
1001.59	2093.02
1001.75	2074.59
1001.91	2054.11
1002.07	2035.68
1002.23	2045.92
1002.39	2109.41
1002.55	2056.16
1002.71	2113.50
1002.87	2064.35
1003.03	2039.78
1003.19	2076.64
1003.34	2121.70
1003.50	2007.01
1003.66	2090.98
1003.82	2027.49
1003.98	1994.72
1004.14	2000.87
1004.30	2031.58
1004.46	2090.98
1004.62	2002.91
1004.78	2009.06
1004.94	1984.48
1005.09	2035.68
1005.25	1982.43
1005.41	2084.83
1005.57	1972.19
1005.73	2013.15
1005.89	2002.91
1006.05	2033.63
1006.21	2056.16
1006.37	2039.78
1006.52	1955.81
1006.68	2047.97
1006.84	2078.69
1007.00	2013.15
1007.16	2086.88
1007.32	1957.86
1007.48	2041.82
1007.64	1951.71
1007.79	1968.10
1007.95	1980.39
1008.11	1914.85
1008.27	1970.15
1008.43	2070.50
1008.59	1941.47
1008.75	1884.13
1008.91	1906.66
1009.06	1916.90
1009.22	1966.05
1009.38	1941.47
1009.54	1943.52
1009.70	1982.43
1009.86	2045.92
1010.01	2035.68
1010.17	1933.28
1010.33	1990.63
1010.49	1949.67
1010.65	1951.71
1010.81	1918.95
1010.96	1978.34
1011.12	1941.47
1011.28	1941.47
1011.44	1998.82
1011.60	1992.67
1011.76	2000.87
1011.91	1968.10
1012.07	2054.11
1012.23	1898.47
1012.39	1935.33
1012.55	1920.99
1012.71	1906.66
1012.86	1996.77
1013.02	1925.09
1013.18	1918.95
1013.34	1904.61
1013.50	1968.10
1013.65	1906.66
1013.81	1908.71
1013.97	1931.23
1014.13	1882.08
1014.29	1863.65
1014.44	1994.72
1014.60	1945.57
1014.76	1882.08
1014.92	1974.24
1015.07	1884.13
1015.23	1886.18
1015.39	1918.95
1015.55	1894.37
1015.71	1906.66
1015.86	1865.70
1016.02	1826.79
1016.18	1888.23
1016.34	1853.41
1016.49	1871.84
1016.65	1843.17
1016.81	1841.12
1016.97	1914.85
1017.12	1873.89
1017.28	1880.04
1017.44	1869.80
1017.60	1800.16
1017.75	1906.66
1017.91	1908.71
1018.07	1867.75
1018.23	1906.66
1018.38	1808.36
1018.54	1851.36
1018.70	1843.17
1018.86	1841.12
1019.01	1828.84
1019.17	1908.71
1019.33	1859.56
1019.49	1845.22
1019.64	1837.03
1019.80	1877.99
1019.96	1896.42
1020.12	1800.16
1020.27	1718.25
1020.43	1830.88
1020.59	1839.08
1020.74	1908.71
1020.90	1888.23
1021.06	1812.45
1021.22	1834.98
1021.37	1802.21
1021.53	1847.27
1021.69	1808.36
1021.84	1753.06
1022.00	1857.51
1022.16	1771.49
1022.31	1875.94
1022.47	1834.98
1022.63	1800.16
1022.79	1691.62
1022.94	1722.34
1023.10	1857.51
1023.26	1845.22
1023.41	1771.49
1023.57	1775.59
1023.73	1759.21
1023.88	1783.78
1024.04	1849.32
1024.20	1806.31
1024.35	1867.75
1024.51	1771.49
1024.67	1791.97
1024.82	1812.45
1024.98	1736.68
1025.14	1818.60
1025.29	1837.03
1025.45	1804.26
1025.61	1738.73
1025.76	1730.53
1025.92	1798.12
1026.08	1720.29
1026.23	1742.82
1026.39	1763.30
1026.55	1751.01
1026.70	1722.34
1026.86	1701.86
1027.02	1771.49
1027.17	1697.77
1027.33	1851.36
1027.48	1728.49
1027.64	1701.86
1027.80	1636.33
1027.95	1869.80
1028.11	1691.62
1028.27	1746.92
1028.42	1732.58
1028.58	1744.87
1028.73	1703.91
1028.89	1708.01
1029.05	1810.40
1029.20	1767.40
>>>>>End Processed Spectral Data<<<<<
