SpectraSuite Data File
++++++++++++++++++++++++++++++++++++
Date: Tue Jun 13 11:52:07 CEST 2017
User: INFO_000
Dark Spectrum Present: No
Reference Spectrum Present: No
Number of Sampled Component Spectra: 1
Spectrometers: USB4H00879
Integration Time (usec): 30000 (USB4H00879)
Spectra Averaged: 1 (USB4H00879)
Boxcar Smoothing: 0 (USB4H00879)
Correct for Electrical Dark: No (USB4H00879)
Strobe/Lamp Enabled: No (USB4H00879)
Correct for Detector Non-linearity: No (USB4H00879)
Correct for Stray Light: No (USB4H00879)
Number of Pixels in Processed Spectrum: 3648
>>>>>Begin Processed Spectral Data<<<<<
345.13	1304.56
345.34	1304.56
345.56	1304.56
345.78	1339.37
345.99	1374.19
346.21	1525.74
346.42	1488.87
346.64	1503.21
346.86	1593.32
347.07	1501.16
347.29	1552.36
347.50	1419.24
347.72	1523.69
347.94	1542.12
348.15	1460.20
348.37	1474.54
348.59	1529.83
348.80	1501.16
349.02	1568.74
349.23	1671.14
349.45	1624.04
349.67	1624.04
349.88	1648.61
350.10	1646.57
350.31	1660.90
350.53	1642.47
350.75	1624.04
350.96	1667.05
351.18	1685.48
351.39	1650.66
351.61	1585.13
351.82	1660.90
352.04	1677.29
352.26	1689.57
352.47	1619.94
352.69	1630.18
352.90	1652.71
353.12	1624.04
353.34	1630.18
353.55	1638.38
353.77	1628.14
353.98	1677.29
354.20	1708.01
354.41	1630.18
354.63	1712.10
354.85	1697.77
355.06	1703.91
355.28	1636.33
355.49	1654.76
355.71	1595.37
355.92	1679.33
356.14	1650.66
356.35	1617.90
356.57	1646.57
356.79	1765.35
357.00	1734.63
357.22	1667.05
357.43	1654.76
357.65	1779.68
357.86	1650.66
358.08	1687.53
358.29	1687.53
358.51	1712.10
358.72	1759.21
358.94	1703.91
359.16	1683.43
359.37	1722.34
359.59	1658.85
359.80	1705.96
360.02	1716.20
360.23	1728.49
360.45	1648.61
360.66	1697.77
360.88	1679.33
361.09	1748.97
361.31	1763.30
361.52	1759.21
361.74	1808.36
361.95	1738.73
362.17	1669.09
362.38	1775.59
362.60	1669.09
362.81	1775.59
363.03	1791.97
363.24	1724.39
363.46	1787.88
363.67	1730.53
363.89	1759.21
364.10	1679.33
364.32	1701.86
364.53	1720.29
364.75	1730.53
364.96	1808.36
365.18	1763.30
365.39	1755.11
365.61	1814.50
365.82	1814.50
366.04	1857.51
366.25	1773.54
366.47	1746.92
366.68	1800.16
366.90	1849.32
367.11	1759.21
367.33	1849.32
367.54	1814.50
367.76	1808.36
367.97	1769.44
368.19	1843.17
368.40	1918.95
368.62	1781.73
368.83	1794.02
369.05	1855.46
369.26	1869.80
369.48	1791.97
369.69	1748.97
369.91	1867.75
370.12	1830.88
370.33	1863.65
370.55	1726.44
370.76	1812.45
370.98	1908.71
371.19	1824.74
371.41	1779.68
371.62	1904.61
371.84	1865.70
372.05	1896.42
372.27	1859.56
372.48	1947.62
372.69	1812.45
372.91	1933.28
373.12	1939.43
373.34	1802.21
373.55	2004.96
373.77	1943.52
373.98	1869.80
374.20	1855.46
374.41	2052.06
374.62	1920.99
374.84	1884.13
375.05	1998.82
375.27	1986.53
375.48	1918.95
375.70	1918.95
375.91	1996.77
376.12	1978.34
376.34	2037.73
376.55	2000.87
376.77	1974.24
376.98	1966.05
377.19	1970.15
377.41	2002.91
377.62	1914.85
377.84	1992.67
378.05	2072.54
378.27	2058.21
378.48	2060.26
378.69	2035.68
378.91	2047.97
379.12	2050.02
379.34	2064.35
379.55	2029.54
379.76	2080.74
379.98	2123.74
380.19	2066.40
380.41	2064.35
380.62	2058.21
380.83	2084.83
381.05	2058.21
381.26	2230.24
381.47	2088.93
381.69	2099.17
381.90	2183.13
382.12	2111.46
382.33	2127.84
382.54	2103.26
382.76	2138.08
382.97	2138.08
383.19	2121.70
383.40	2144.22
383.61	2211.81
383.83	2076.64
384.04	2111.46
384.25	2136.03
384.47	2164.70
384.68	2273.25
384.89	2203.61
385.11	2197.47
385.32	2275.29
385.54	2301.92
385.75	2293.72
385.96	2271.20
386.18	2301.92
386.39	2228.19
386.60	2179.04
386.82	2355.16
387.03	2340.83
387.24	2189.28
387.46	2271.20
387.67	2293.72
387.88	2236.38
388.10	2314.20
388.31	2265.05
388.52	2389.98
388.74	2377.69
388.95	2299.87
389.16	2312.16
389.38	2422.75
389.59	2408.41
389.80	2455.51
390.02	2342.88
390.23	2488.28
390.44	2422.75
390.66	2484.19
390.87	2447.32
391.08	2445.27
391.30	2523.10
391.51	2471.90
391.72	2562.01
391.94	2471.90
392.15	2424.80
392.36	2537.43
392.58	2492.38
392.79	2510.81
393.00	2578.39
393.22	2623.45
393.43	2578.39
393.64	2592.73
393.85	2650.07
394.07	2465.75
394.28	2619.35
394.49	2623.45
394.71	2648.02
394.92	2721.75
395.13	2619.35
395.35	2586.58
395.56	2574.30
395.77	2750.42
395.98	2736.09
396.20	2754.52
396.41	2750.42
396.62	2820.05
396.84	2678.74
397.05	2754.52
397.26	2820.05
397.47	2918.36
397.69	2693.08
397.90	2758.61
398.11	2807.77
398.32	2838.48
398.54	2781.14
398.75	2877.40
398.96	2861.01
399.18	2906.07
399.39	2938.84
399.60	2930.64
399.81	2863.06
400.03	2957.27
400.24	3018.71
400.45	2883.54
400.66	3047.38
400.88	3084.24
401.09	3110.86
401.30	2983.89
401.51	3061.71
401.73	2990.03
401.94	2963.41
402.15	3076.05
402.36	3035.09
402.58	3151.82
402.79	3162.06
403.00	3190.74
403.21	3141.58
403.43	3141.58
403.64	3209.17
403.85	3067.86
404.06	3149.78
404.27	3065.81
404.49	3243.98
404.70	3174.35
404.91	3096.53
405.12	3137.49
405.34	3219.41
405.55	3284.94
405.76	3114.96
405.97	3176.40
406.19	3327.95
406.40	3198.93
406.61	3233.74
406.82	3407.82
407.03	3360.72
407.25	3309.52
407.46	3321.81
407.67	3373.00
407.88	3383.24
408.09	3346.38
408.31	3379.15
408.52	3459.02
408.73	3403.72
408.94	3379.15
409.15	3549.13
409.37	3518.41
409.58	3461.07
409.79	3450.83
410.00	3600.33
410.21	3514.31
410.43	3528.65
410.64	3561.42
410.85	3563.47
411.06	3565.51
411.27	3588.04
411.48	3547.08
411.70	3555.27
411.91	3743.69
412.12	3633.10
412.33	3551.18
412.54	3674.06
412.76	3751.88
412.97	3643.34
413.18	3747.78
413.39	3745.73
413.60	3702.73
413.81	3839.94
414.03	3698.63
414.24	3721.16
414.45	3858.37
414.66	3624.90
414.87	3733.45
415.08	3876.80
415.30	3780.55
415.51	3846.09
415.72	3755.97
415.93	3901.38
416.14	4040.64
416.35	3944.39
416.56	3923.91
416.78	3880.90
416.99	3964.87
417.20	3901.38
417.41	4018.11
417.62	4083.65
417.83	4040.64
418.04	3960.77
418.26	4032.45
418.47	4016.07
418.68	4151.23
418.89	4181.95
419.10	4159.42
419.31	4059.07
419.52	4286.40
419.73	4159.42
419.95	4323.26
420.16	4267.97
420.37	4282.30
420.58	4306.88
420.79	4149.18
421.00	4347.84
421.21	4485.05
421.42	4214.72
421.63	4270.01
421.85	4255.68
422.06	4267.97
422.27	4292.54
422.48	4390.84
422.69	4456.38
422.90	4536.25
423.11	4601.79
423.32	4487.10
423.53	4669.37
423.75	4616.12
423.96	4648.89
424.17	4546.49
424.38	4741.05
424.59	4683.70
424.80	4919.22
425.01	4765.62
425.22	4870.07
425.43	4790.20
425.64	4990.90
425.85	4835.25
426.06	4822.97
426.28	4857.78
426.49	4802.49
426.70	4917.17
426.91	5033.91
427.12	4949.94
427.33	4900.79
427.54	4978.61
427.75	5040.05
427.96	5214.13
428.17	5074.87
428.38	5105.59
428.59	5242.80
428.80	5312.43
429.01	5212.08
429.23	5183.41
429.44	5466.03
429.65	5298.10
429.86	5441.45
430.07	5283.76
430.28	5197.74
430.49	5236.66
430.70	5648.30
430.91	5472.17
431.12	5558.19
431.33	5586.86
431.54	5619.63
431.75	5631.91
431.96	5580.71
432.17	5533.61
432.38	5593.00
432.59	5722.02
432.80	5713.83
433.01	5711.78
433.22	5765.03
433.43	5740.46
433.64	5697.45
433.85	5511.08
434.06	5873.57
434.27	5883.81
434.49	5887.91
434.70	6039.46
434.91	5871.53
435.12	5834.66
435.33	5947.30
435.54	6104.99
435.75	5744.55
435.96	5853.09
436.17	6129.57
436.38	6104.99
436.59	6213.54
436.80	6002.60
437.01	6475.68
437.22	6375.33
437.43	6150.05
437.64	5980.07
437.85	6307.74
438.06	6301.60
438.27	6154.15
438.48	6287.26
438.69	6471.58
438.90	6430.62
439.11	6274.98
439.32	6580.12
439.53	6371.23
439.74	6606.75
439.95	6481.82
440.16	6623.13
440.37	6397.85
440.57	6539.16
440.78	6735.77
440.99	6584.22
441.20	6680.47
441.41	6737.82
441.62	6662.04
441.83	6551.45
442.04	6823.83
442.25	6829.98
442.46	6797.21
442.67	6870.94
442.88	7192.47
443.09	6768.54
443.30	6883.22
443.51	6901.65
443.72	7149.46
443.93	6852.50
444.14	7139.22
444.35	7024.53
444.56	7108.50
444.77	7145.36
444.98	6920.09
445.19	7092.12
445.40	7221.14
445.61	7104.40
445.81	7221.14
446.02	7389.07
446.23	7151.51
446.44	7088.02
446.65	7176.08
446.86	7200.66
447.07	7440.27
447.28	7493.52
447.49	7292.82
447.70	7380.88
447.91	7524.24
448.12	7507.85
448.33	7645.07
448.54	7532.43
448.74	7577.48
448.95	7692.17
449.16	7427.98
449.37	7835.53
449.58	7538.57
449.79	7964.55
450.00	7657.36
450.21	7929.74
450.42	7878.54
450.63	7937.93
450.84	7917.45
451.05	7952.26
451.25	7829.38
451.46	7858.06
451.67	7862.15
451.88	8275.84
452.09	8269.70
452.30	8120.20
452.51	8054.66
452.72	8195.97
452.93	8331.14
453.13	8032.13
453.34	8212.35
453.55	8247.17
453.76	8300.42
453.97	8750.97
454.18	8531.84
454.39	8423.30
454.60	8548.22
454.81	8488.83
455.01	8685.44
455.22	8427.39
455.43	8578.94
455.64	8804.22
455.85	8994.68
456.06	8966.01
456.27	8726.39
456.48	8761.21
456.68	9000.82
456.89	8793.98
457.10	8992.63
457.31	9123.70
457.52	9099.13
457.73	9201.52
457.94	9383.79
458.14	9064.31
458.35	9629.55
458.56	9289.59
458.77	9437.04
458.98	9434.99
459.19	9521.01
459.39	9586.54
459.60	9693.04
459.81	9455.47
460.02	9707.37
460.23	9774.95
460.44	9994.09
460.65	9930.60
460.85	10016.62
461.06	10215.27
461.27	9791.34
461.48	10252.13
461.69	10393.44
461.89	10047.33
462.10	10248.04
462.31	10096.49
462.52	10245.99
462.73	10129.25
462.94	10524.51
463.14	10506.08
463.35	10481.50
463.56	10819.42
463.77	10757.98
463.98	10641.25
464.18	10780.51
464.39	10862.43
464.60	11149.14
464.81	11173.72
465.02	10805.08
465.23	11282.26
465.43	11052.89
465.64	11630.41
465.85	11300.69
466.06	11181.91
466.27	11710.29
466.47	11622.22
466.68	11517.78
466.89	11466.58
467.10	11802.44
467.30	11767.63
467.51	11654.99
467.72	11927.37
467.93	11839.31
468.14	12109.64
468.34	11906.89
468.55	12310.34
468.76	12214.09
468.97	11956.04
469.17	12660.54
469.38	12377.92
469.59	12390.21
469.80	12349.25
470.01	12445.51
470.21	12531.52
470.42	13063.99
470.63	13043.51
470.84	12789.56
471.04	13334.32
471.25	13051.70
471.46	13109.05
471.67	13428.53
471.87	13182.77
472.08	13502.26
472.29	13967.15
472.50	13213.49
472.70	13430.58
472.91	13702.96
473.12	13764.40
473.33	13801.26
473.53	14233.38
473.74	14188.33
473.95	14397.22
474.16	14534.43
474.36	14251.81
474.57	14532.39
474.78	14825.25
474.99	14446.37
475.19	14608.16
475.40	15179.54
475.61	14847.77
475.81	15220.50
476.02	15335.19
476.23	14903.07
476.44	15431.44
476.64	15697.68
476.85	15828.75
477.06	15685.39
477.27	16133.90
477.47	16144.14
477.68	16107.27
477.89	16060.17
478.09	16187.14
478.30	16131.85
478.51	16441.09
478.71	16772.86
478.92	16797.44
479.13	16779.01
479.34	17004.28
479.54	17164.03
479.75	17256.18
479.96	17356.54
480.16	17340.15
480.37	17258.23
480.58	17669.87
480.78	17989.36
480.99	17925.87
481.20	17858.29
481.41	18034.41
481.61	18142.96
481.82	18464.49
482.03	18181.87
482.23	18237.16
482.44	18624.23
482.65	18726.63
482.85	18599.65
483.06	18915.04
483.27	19203.80
483.47	18847.46
483.68	19091.16
483.89	19568.34
484.09	19175.13
484.30	19658.45
484.51	19728.08
484.71	19664.60
484.92	20022.99
485.13	20078.29
485.33	19904.21
485.54	20201.16
485.75	20444.87
485.95	20367.05
486.16	20309.71
486.37	20682.44
486.57	20764.36
486.78	20604.61
486.98	20725.44
487.19	21149.37
487.40	21329.59
487.60	21135.04
487.81	21759.67
488.02	21366.46
488.22	21425.85
488.43	21655.22
488.64	21638.84
488.84	22234.80
489.05	22169.26
489.25	22134.45
489.46	22689.45
489.67	22220.46
489.87	22529.70
490.08	22462.12
490.29	22714.02
490.49	23158.43
490.70	22988.45
490.90	23174.81
491.11	23082.66
491.32	23240.35
491.52	23465.63
491.73	23391.90
491.94	23486.11
492.14	23895.70
492.35	24010.39
492.55	23946.90
492.76	24016.53
492.97	23967.38
493.17	23881.36
493.38	23860.88
493.58	24706.70
493.79	24497.80
494.00	24389.26
494.20	24657.54
494.41	24835.72
494.61	24985.22
494.82	25038.47
495.02	25155.20
495.23	25013.89
495.44	25036.42
495.64	25226.88
495.85	25423.48
496.05	25251.45
496.26	25466.49
496.47	25853.56
496.67	25706.10
496.88	26222.19
497.08	25978.48
497.29	26553.96
497.49	26150.51
497.70	26283.63
497.91	26410.60
498.11	26312.30
498.32	26562.15
498.52	26525.29
498.73	27053.67
498.93	26916.45
499.14	27213.41
499.34	26787.43
499.55	27194.98
499.76	27254.37
499.96	27336.29
500.17	27383.39
500.37	27459.16
500.58	27588.19
500.78	27426.40
500.99	27696.73
501.19	28151.38
501.40	27866.71
501.60	28100.18
501.81	28128.85
502.02	28137.04
502.22	27770.46
502.43	28241.49
502.63	28587.60
502.84	28304.98
503.04	28288.59
503.25	28157.52
503.45	28581.45
503.66	28876.36
503.86	28542.54
504.07	29077.06
504.27	28694.09
504.48	29183.55
504.68	29361.73
504.89	29384.26
505.09	29507.13
505.30	29163.08
505.50	29500.99
505.71	29666.88
505.91	29765.18
506.12	29711.93
506.32	29849.14
506.53	29666.88
506.73	30260.79
506.94	30289.46
507.14	29943.35
507.35	30164.53
507.55	30064.18
507.76	30486.06
507.96	30375.47
508.17	29969.97
508.37	30099.00
508.58	30688.81
508.78	30617.13
508.99	30762.54
509.19	30682.67
509.40	30707.24
509.60	30844.46
509.81	31030.82
510.01	31174.18
510.22	30727.72
510.42	31284.77
510.63	31366.69
510.83	31165.99
511.04	31165.99
511.24	31284.77
511.44	31677.98
511.65	31553.05
511.85	31295.01
512.06	31618.59
512.26	31675.93
512.47	31858.20
512.67	31874.59
512.88	31821.34
513.08	31577.63
513.29	32204.31
513.49	32179.73
513.69	31852.06
513.90	32149.01
514.10	32249.36
514.31	32257.56
514.51	32411.15
514.72	32343.57
514.92	32103.96
515.13	32300.56
515.33	32540.18
515.53	32669.20
515.74	32581.13
515.94	32773.64
516.15	32804.36
516.35	32462.35
516.56	32964.10
516.76	33326.60
516.96	32947.72
517.17	33201.67
517.37	33084.94
517.58	33357.32
517.78	33160.71
517.99	33201.67
518.19	33906.17
518.39	33541.63
518.60	33826.30
518.80	33842.68
519.01	33689.09
519.21	33572.35
519.41	33590.78
519.62	33576.45
519.82	34330.10
520.03	34000.38
520.23	34348.53
520.43	34070.01
520.64	34731.50
520.84	34557.42
521.05	34616.82
521.25	34661.87
521.45	34567.66
521.66	34944.49
521.86	34704.88
522.07	34723.31
522.27	35243.49
522.47	35268.07
522.68	35313.13
522.88	35016.17
523.08	35395.04
523.29	35454.44
523.49	35599.84
523.70	35542.50
523.90	35792.35
524.10	35792.35
524.31	36124.12
524.51	35761.63
524.71	36189.66
524.92	35913.18
525.12	36369.88
525.33	36146.65
525.53	36433.36
525.73	36492.76
525.94	36576.72
526.14	36715.98
526.34	36746.70
526.55	36986.32
526.75	36603.35
526.95	36998.60
527.16	37131.72
527.36	37072.33
527.56	37641.67
527.77	38012.35
527.97	37324.23
528.17	37658.05
528.38	37608.90
528.58	37533.12
528.78	37965.24
528.99	37766.59
529.19	37856.70
529.39	38077.88
529.60	38614.45
529.80	38194.62
530.00	38450.61
530.21	38491.57
530.41	38671.79
530.61	38337.98
530.82	38612.40
531.02	38868.40
531.22	39171.50
531.43	38987.18
531.63	39015.85
531.83	39069.10
532.04	39968.16
532.24	38860.21
532.44	39667.11
532.64	39550.37
532.85	39599.52
533.05	40037.79
533.25	40025.50
533.46	39990.69
533.66	40457.62
533.86	40310.17
534.07	40613.27
534.27	40435.10
534.47	40867.22
534.67	40560.02
534.88	40488.34
535.08	40918.42
535.28	40951.18
535.49	40926.61
535.69	41581.96
535.89	41276.81
536.09	41254.28
536.30	41678.21
536.50	41803.14
536.70	42057.09
536.91	42118.53
537.11	41876.86
537.31	41997.70
537.51	42065.28
537.72	42249.60
537.92	42065.28
538.12	42732.92
538.32	42100.09
538.53	42720.63
538.73	42378.62
538.93	42734.96
539.13	42610.04
539.34	42739.06
539.54	42624.37
539.74	43281.77
539.94	43089.26
540.15	43087.21
540.35	43556.20
540.55	42894.71
540.75	43636.07
540.96	43711.84
541.16	43816.29
541.36	43640.17
541.56	43767.14
541.77	44021.09
541.97	43752.80
542.17	44426.59
542.37	43894.11
542.58	43937.12
542.78	44004.70
542.98	43943.27
543.18	44430.68
543.38	44651.86
543.59	44860.76
543.79	44301.66
543.99	44625.24
544.19	44744.02
544.40	44586.33
544.60	45296.97
544.80	45065.55
545.00	44766.55
545.20	45344.08
545.41	45086.03
545.61	45043.02
545.81	45274.45
546.01	45466.95
546.21	45309.26
546.42	45075.79
546.62	45469.00
546.82	45397.32
547.02	45696.33
547.22	45780.29
547.43	45258.06
547.63	45831.49
547.83	45829.44
548.03	45704.52
548.23	46054.72
548.44	45894.98
548.64	46497.08
548.84	46040.39
549.04	46118.21
549.24	46155.07
549.45	46613.82
549.65	46615.86
549.85	46441.79
550.05	46540.09
550.25	46742.84
550.45	47000.88
550.66	46445.88
550.86	46261.57
551.06	46767.41
551.26	46998.83
551.46	46712.12
551.66	46669.11
551.87	46773.56
552.07	47095.09
552.27	47197.49
552.47	46998.83
552.67	47420.72
552.87	46855.48
553.07	47619.37
553.28	47293.74
553.48	47582.51
553.68	47519.02
553.88	47602.99
554.08	47363.37
554.28	47404.33
554.48	47111.47
554.69	47641.90
554.89	47562.03
555.09	47650.09
555.29	47719.72
555.49	47871.27
555.69	47988.00
555.89	47852.84
556.10	48190.75
556.30	47529.26
556.50	48160.03
556.70	47910.18
556.90	48256.29
557.10	48233.76
557.30	47770.92
557.50	48518.43
557.70	48493.85
557.91	48649.50
558.11	48397.60
558.31	48694.55
558.51	48459.04
558.71	48057.63
558.91	48461.08
559.11	48454.94
559.31	48700.70
559.51	48620.83
559.72	48600.35
559.92	48702.74
560.12	48485.66
560.32	48551.20
560.52	48790.81
560.72	48803.10
560.92	49028.37
561.12	49102.10
561.32	49362.19
561.52	48319.77
561.72	49382.67
561.93	48870.68
562.13	49079.57
562.33	48665.88
562.53	49597.71
562.73	49261.84
562.93	49100.05
563.13	49566.99
563.33	49081.62
563.53	49579.28
563.73	49323.28
563.93	49302.80
564.13	49679.63
564.33	49112.34
564.53	49241.36
564.74	49456.40
564.94	49243.41
565.14	49603.85
565.34	49124.63
565.54	49409.29
565.74	49675.53
565.94	49894.66
566.14	49712.39
566.34	49442.06
566.54	50332.93
566.74	49573.13
566.94	49784.07
567.14	49779.98
567.34	50066.69
567.54	49964.29
567.74	49523.98
567.94	50179.33
568.14	50195.71
568.34	50545.92
568.54	50119.94
568.74	50285.82
568.94	49822.98
569.14	50693.37
569.34	50404.61
569.54	50187.52
569.75	50300.16
569.95	50525.44
570.15	50799.86
570.35	50496.77
570.55	50267.39
570.75	50461.95
570.95	50271.49
571.15	50513.15
571.35	50750.71
571.55	51123.44
571.75	50781.43
571.95	50615.55
572.15	50693.37
572.35	51059.96
572.55	50789.62
572.75	50957.56
572.95	50910.46
573.15	50994.42
573.35	50894.07
573.55	50496.77
573.75	50715.90
573.95	51049.72
574.15	51113.20
574.35	51371.25
574.55	51391.73
574.75	50951.41
574.95	51504.37
575.15	51033.33
575.34	51549.42
575.54	51336.43
575.74	51692.78
575.94	51623.15
576.14	51922.15
576.34	51352.82
576.54	51877.10
576.74	51725.55
576.94	51885.29
577.14	51981.54
577.34	52464.86
577.54	51571.95
577.74	52088.04
577.94	51688.68
578.14	51930.34
578.34	52237.54
578.54	51449.07
578.74	52024.55
578.94	52538.59
579.14	51844.33
579.34	51950.82
579.54	52264.16
579.74	52716.76
579.94	52212.96
580.13	52389.09
580.33	52718.81
580.53	52761.82
580.73	52481.25
580.93	52374.75
581.13	52788.44
581.33	52782.30
581.53	52554.97
581.73	53023.96
581.93	52532.45
582.13	52976.86
582.33	53230.80
582.53	53054.68
582.73	52911.32
582.92	53050.58
583.12	53525.71
583.32	53023.96
583.52	53290.19
583.72	53251.28
583.92	53093.59
584.12	53615.82
584.32	53904.59
584.52	53396.69
584.72	53339.35
584.92	53660.88
585.11	54265.03
585.31	53701.84
585.51	53972.17
585.71	54117.57
585.91	54281.41
586.11	53542.10
586.31	53435.60
586.51	53894.35
586.71	53837.00
586.91	54117.57
587.10	54248.64
587.30	53880.01
587.50	54686.91
587.70	54367.43
587.90	54680.77
588.10	54232.26
588.30	54146.25
588.50	54906.04
588.69	54729.92
588.89	54031.56
589.09	54953.15
589.29	54613.18
589.49	54836.41
589.69	54553.79
589.89	54617.28
590.08	54584.51
590.28	54570.18
590.48	54854.84
590.68	54822.08
590.88	54801.60
591.08	55057.59
591.28	54766.78
591.47	55203.00
591.67	54713.53
591.87	55043.26
592.07	54586.56
592.27	55119.03
592.47	55061.69
592.67	54846.65
592.86	54820.03
593.06	55297.20
593.26	55598.26
593.46	55215.29
593.66	55604.40
593.86	55422.13
594.05	55286.96
594.25	55751.85
594.45	55102.65
594.65	55420.08
594.85	55082.17
595.05	55786.67
595.24	56128.68
595.44	55348.40
595.64	55405.75
595.84	55547.06
596.04	55651.50
596.23	55878.83
596.43	56132.78
596.63	55622.83
596.83	55751.85
597.03	56310.95
597.22	56235.17
597.42	56044.71
597.62	55913.64
597.82	55784.62
598.02	56095.91
598.21	56337.57
598.41	56100.01
598.61	56341.67
598.81	56374.44
599.01	56390.82
599.20	56378.53
599.40	56245.41
599.60	56523.94
599.80	56321.19
600.00	56485.03
600.19	56499.36
600.39	56380.58
600.59	56712.35
600.79	56855.71
600.98	56788.13
601.18	56583.33
601.38	57332.89
601.58	57177.24
601.78	57011.35
601.97	56892.57
602.17	57545.87
602.37	57304.21
602.57	57271.45
602.76	57267.35
602.96	56915.10
603.16	57545.87
603.36	57242.77
603.55	57302.17
603.75	57595.03
603.95	57468.05
604.15	57631.89
604.34	57339.03
604.54	58066.06
604.74	57922.70
604.94	57629.84
605.13	57750.67
605.33	57713.81
605.53	57625.74
605.73	58010.76
605.92	57545.87
606.12	58102.92
606.32	57871.50
606.52	57853.07
606.71	57818.25
606.91	57986.19
607.11	57707.66
607.30	58277.00
607.50	57957.52
607.70	58203.27
607.90	58057.87
608.09	57875.60
608.29	57859.21
608.49	58578.05
608.68	58203.27
608.88	58150.02
609.08	58215.56
609.28	58104.97
609.47	58287.24
609.67	58551.43
609.87	58309.77
610.06	58561.67
610.26	58446.98
610.46	58336.39
610.66	58662.02
610.85	58489.99
611.05	58410.12
611.25	58289.29
611.44	58420.36
611.64	58766.46
611.84	58315.91
612.03	58375.30
612.23	58582.15
612.43	58623.11
612.62	58659.97
612.82	58774.66
613.02	58815.61
613.21	58336.39
613.41	58702.98
613.61	58965.12
613.80	58410.12
614.00	58651.78
614.20	58635.39
614.39	58231.94
614.59	58975.36
614.79	58434.69
614.98	58506.37
615.18	59073.66
615.38	58391.68
615.57	58430.60
615.77	58377.35
615.97	58750.08
616.16	58471.56
616.36	58733.70
616.56	59055.23
616.75	58578.05
616.95	58059.91
617.15	58596.48
617.34	58520.71
617.54	58219.66
617.74	58989.69
617.93	58645.63
618.13	58215.56
618.32	58664.06
618.52	58801.28
618.72	58514.56
618.91	58805.37
619.11	58397.83
619.31	58422.40
619.50	58387.59
619.70	58242.18
619.90	58238.09
620.09	58502.28
620.29	58492.04
620.48	58203.27
620.68	58557.57
620.88	57697.42
621.07	58467.46
621.27	57728.14
621.46	57627.79
621.66	58520.71
621.86	58395.78
622.05	57808.01
622.25	58457.22
622.44	58246.28
622.64	58098.83
622.84	58094.73
623.03	58233.99
623.23	57846.93
623.42	58184.84
623.62	58225.80
623.82	58619.01
624.01	58139.78
624.21	58291.33
624.40	57855.12
624.60	57744.53
624.80	57748.62
624.99	57973.90
625.19	57808.01
625.38	58213.51
625.58	58219.66
625.77	57937.04
625.97	57959.56
626.17	57711.76
626.36	57779.34
626.56	57814.16
626.75	57429.14
626.95	57975.95
627.14	57531.54
627.34	58059.91
627.54	57631.89
627.73	57967.76
627.93	57996.43
628.12	57971.85
628.32	57674.90
628.51	57742.48
628.71	57801.87
628.90	57449.62
629.10	57902.22
629.30	58088.59
629.49	57740.43
629.69	57719.95
629.88	57644.18
630.08	57934.99
630.27	57781.39
630.47	57644.18
630.66	57066.65
630.86	57986.19
631.05	57420.95
631.25	58156.17
631.44	57576.59
631.64	57984.14
631.84	57973.90
632.03	57865.36
632.23	57730.19
632.42	58211.46
632.62	57832.59
632.81	57093.27
633.01	57492.63
633.20	58190.98
633.40	58190.98
633.59	57777.29
633.79	57609.36
633.98	57689.23
634.18	57887.88
634.37	57586.83
634.57	57771.15
634.76	57967.76
634.96	57539.73
635.15	57447.57
635.35	57396.37
635.54	57144.47
635.74	58023.05
635.93	57447.57
636.13	57470.10
636.32	57484.43
636.52	57318.55
636.71	57685.14
636.91	57859.21
637.10	57912.46
637.30	57648.27
637.49	57785.49
637.69	57470.10
637.88	57926.80
638.08	57468.05
638.27	57978.00
638.46	57455.76
638.66	57599.12
638.85	57564.31
639.05	57525.39
639.24	57562.26
639.44	57386.13
639.63	57883.79
639.83	58090.63
640.02	57771.15
640.22	57058.46
640.41	57306.26
640.61	57232.53
640.80	57808.01
640.99	57390.23
641.19	57666.70
641.38	57261.21
641.58	57257.11
641.77	57154.71
641.97	57349.27
642.16	57257.11
642.36	57859.21
642.55	57836.69
642.74	57298.07
642.94	58311.81
643.13	57226.39
643.33	57326.74
643.52	57799.82
643.72	57689.23
643.91	57207.96
644.10	57535.63
644.30	57891.98
644.49	57492.63
644.69	57549.97
644.88	57330.84
645.08	57429.14
645.27	57652.37
645.46	57468.05
645.66	57646.22
645.85	57742.48
646.05	57605.26
646.24	57685.14
646.43	57588.88
646.63	57992.33
646.82	57443.48
647.02	57799.82
647.21	57832.59
647.40	57767.05
647.60	58139.78
647.79	57601.17
647.99	57803.92
648.18	57367.70
648.37	58074.25
648.57	57615.50
648.76	57728.14
648.96	57715.86
649.15	58258.57
649.34	57341.08
649.54	57513.11
649.73	57681.04
649.92	57681.04
650.12	57345.17
650.31	57719.95
650.51	57519.25
650.70	58000.52
650.89	57355.41
651.09	57988.24
651.28	57902.22
651.47	58053.77
651.67	57668.75
651.86	58035.34
652.06	57154.71
652.25	57902.22
652.44	57769.10
652.64	57877.64
652.83	57779.34
653.02	57353.36
653.22	57603.22
653.41	57519.25
653.60	57664.66
653.80	57416.85
653.99	57558.16
654.18	57492.63
654.38	57572.50
654.57	57709.71
654.76	57846.93
654.96	57443.48
655.15	57332.89
655.34	57787.53
655.54	57472.15
655.73	57681.04
655.92	57980.04
656.12	57423.00
656.31	57502.87
656.50	57470.10
656.70	57787.53
656.89	57578.64
657.08	57853.07
657.28	57269.40
657.47	57644.18
657.66	57676.94
657.86	57351.32
658.05	57771.15
658.24	57492.63
658.43	57136.28
658.63	58274.95
658.82	57693.33
659.01	57345.17
659.21	57437.33
659.40	57681.04
659.59	57437.33
659.79	57238.68
659.98	57490.58
660.17	57457.81
660.36	57402.52
660.56	57062.55
660.75	57842.83
660.94	57423.00
661.14	57494.67
661.33	57439.38
661.52	56763.55
661.71	57840.78
661.91	56874.14
662.10	57050.27
662.29	57554.07
662.49	57578.64
662.68	57609.36
662.87	57046.17
663.06	57336.98
663.26	57613.46
663.45	57353.36
663.64	57136.28
663.83	57418.90
664.03	57308.31
664.22	57324.69
664.41	57320.60
664.60	57128.09
664.80	57320.60
664.99	57189.53
665.18	57101.46
665.37	57058.46
665.57	56921.24
665.76	57181.34
665.95	57429.14
666.14	56773.79
666.34	57173.14
666.53	57085.08
666.72	57259.16
666.91	56929.44
667.11	56806.56
667.30	56824.99
667.49	57029.79
667.68	56855.71
667.87	56548.51
668.07	57177.24
668.26	56986.78
668.45	56857.76
668.64	56763.55
668.84	57339.03
669.03	57158.81
669.22	56978.59
669.41	56509.60
669.60	56982.68
669.80	56583.33
669.99	57031.83
670.18	56599.71
670.37	56790.17
670.57	57595.03
670.76	56534.18
670.95	57226.39
671.14	56693.92
671.33	56847.52
671.53	57025.69
671.72	56741.02
671.91	56798.37
672.10	56712.35
672.29	56751.26
672.48	56566.94
672.68	56874.14
672.87	56378.53
673.06	56575.14
673.25	56077.48
673.44	56368.29
673.64	56345.76
673.83	56220.84
674.02	56571.04
674.21	56038.57
674.40	56708.25
674.59	56204.45
674.79	56407.20
674.98	55714.99
675.17	56396.96
675.36	56337.57
675.55	56501.41
675.74	55966.89
675.94	56423.59
676.13	56390.82
676.32	56329.38
676.51	56669.34
676.70	56188.07
676.89	55977.13
677.08	56243.37
677.28	55575.73
677.47	55827.63
677.66	56169.64
677.85	55999.66
678.04	56016.04
678.23	56313.00
678.42	56073.38
678.62	55719.09
678.81	56259.75
679.00	55827.63
679.19	56362.15
679.38	55803.05
679.57	55674.03
679.76	55588.02
679.96	55930.03
680.15	55866.54
680.34	55975.08
680.53	55723.18
680.72	55606.45
680.91	55938.22
681.10	55792.81
681.29	55561.39
681.48	55766.19
681.68	55422.13
681.87	55372.98
682.06	55289.01
682.25	55147.70
682.44	55714.99
682.63	55876.78
682.82	55043.26
683.01	55356.60
683.20	55084.22
683.39	55254.20
683.59	54944.95
683.78	54830.27
683.97	54944.95
684.16	55137.46
684.35	55067.83
684.54	54903.99
684.73	54813.88
684.92	55166.13
685.11	54975.67
685.30	54838.46
685.49	55014.58
685.69	55084.22
685.88	54834.36
686.07	54621.37
686.26	54924.47
686.45	54891.71
686.64	54809.79
686.83	54648.00
687.02	54594.75
687.21	54951.10
687.40	54559.94
687.59	54639.81
687.78	54566.08
687.97	54654.14
688.16	54242.50
688.35	54539.46
688.54	54373.57
688.74	54127.81
688.93	54289.60
689.12	54308.04
689.31	54179.01
689.50	54054.09
689.69	53951.69
689.88	53865.67
690.07	54097.09
690.26	53912.78
690.45	54258.88
690.64	54088.90
690.83	53648.59
691.02	53687.50
691.21	54019.27
691.40	53873.87
691.59	53947.59
691.78	53617.87
691.97	53804.24
692.16	54121.67
692.35	53773.52
692.54	53822.67
692.73	53544.14
692.92	53841.10
693.11	53540.05
693.30	53609.68
693.49	53779.66
693.68	53892.30
693.87	53687.50
694.06	53212.37
694.25	53368.02
694.44	52862.17
694.63	53214.42
694.82	53505.23
695.01	53619.92
695.20	52645.08
695.39	52921.56
695.58	52899.03
695.77	53353.68
695.96	52438.24
696.15	53222.61
696.34	52659.42
696.53	52782.30
696.72	53071.06
696.91	52509.92
697.10	52907.22
697.29	52655.32
697.48	53054.68
697.67	52471.01
697.86	52511.97
698.05	52534.49
698.24	52759.77
698.43	51903.72
698.62	52722.91
698.81	51887.34
699.00	52534.49
699.19	51997.93
699.38	52446.43
699.57	52120.80
699.76	52704.48
699.95	51897.58
700.14	52188.39
700.32	51774.70
700.51	52264.16
700.70	52372.70
700.89	52126.95
701.08	52434.14
701.27	51543.28
701.46	52270.31
701.65	51750.12
701.84	52397.28
702.03	51926.25
702.22	51320.05
702.41	51537.13
702.60	51633.39
702.79	51784.94
702.98	51387.63
703.17	51537.13
703.35	51567.85
703.54	51262.71
703.73	51223.79
703.92	51346.67
704.11	51416.30
704.30	50955.51
704.49	51016.95
704.68	51373.30
704.87	51139.83
705.06	50724.09
705.25	50666.75
705.43	51025.14
705.62	50849.02
705.81	51072.24
706.00	51023.09
706.19	50398.46
706.38	50961.65
706.57	51066.10
706.76	50152.71
706.95	50615.55
707.14	50347.26
707.32	50740.47
707.51	50736.38
707.70	50439.42
707.89	50394.37
708.08	50488.57
708.27	50724.09
708.46	50898.17
708.65	50353.41
708.84	50480.38
709.02	49843.46
709.21	50021.64
709.40	50187.52
709.59	50214.15
709.78	50119.94
709.97	50373.89
710.16	49577.23
710.34	50177.28
710.53	49739.02
710.72	49583.37
710.91	50078.98
711.10	50193.67
711.29	49992.97
711.48	49839.37
711.66	49431.82
711.85	49597.71
712.04	49495.31
712.23	49546.51
712.42	49550.60
712.61	49554.70
712.80	49435.92
712.98	49956.10
713.17	49016.08
713.36	49409.29
713.55	48921.88
713.74	49474.83
713.93	48813.34
714.11	49433.87
714.30	48938.26
714.49	48876.82
714.68	49255.70
714.87	49030.42
715.06	49317.14
715.24	49405.20
715.43	49161.49
715.62	48925.97
715.81	48534.81
716.00	48954.64
716.18	48297.25
716.37	48483.61
716.56	48176.42
716.75	48751.90
716.94	47969.57
717.12	48215.33
717.31	48532.76
717.50	48237.86
717.69	48221.47
717.88	48233.76
718.06	48270.62
718.25	48239.90
718.44	48082.21
718.63	47916.32
718.82	48039.20
719.00	47686.95
719.19	47975.72
719.38	47426.86
719.57	47523.11
719.76	47301.93
719.94	47516.97
720.13	47183.15
720.32	47387.95
720.51	47320.37
720.69	47451.44
720.88	47252.78
721.07	47297.84
721.26	46738.74
721.44	47117.62
721.63	46882.10
721.82	46662.97
722.01	46785.85
722.20	47226.16
722.38	46525.75
722.57	46349.63
722.76	46572.86
722.95	46521.66
723.13	46210.37
723.32	46626.10
723.51	46169.41
723.70	46036.29
723.88	46187.84
724.07	46247.23
724.26	46122.30
724.44	45434.19
724.63	45929.80
724.82	46206.27
725.01	45987.14
725.19	45784.39
725.38	45925.70
725.57	45872.45
725.76	45845.83
725.94	45681.99
726.13	45743.43
726.32	45352.27
726.51	45497.67
726.69	46067.01
726.88	46118.21
727.07	45501.77
727.25	45307.21
727.44	45694.28
727.63	45333.84
727.82	45282.64
728.00	45382.99
728.19	45512.01
728.38	45407.56
728.56	44858.71
728.75	45366.60
728.94	45122.90
729.12	45591.88
729.31	45964.61
729.50	45102.42
729.69	45344.08
729.87	45221.20
730.06	45376.84
730.25	45315.40
730.43	45309.26
730.62	45155.66
730.81	45612.36
730.99	45258.06
731.18	44698.97
731.37	45317.45
731.55	45247.82
731.74	45337.93
731.93	45270.35
732.11	45114.70
732.30	45210.96
732.49	44930.39
732.67	44807.51
732.86	45321.55
733.05	45260.11
733.23	44473.69
733.42	44436.83
733.61	44760.40
733.79	44817.75
733.98	45045.07
734.17	44838.23
734.35	44762.45
734.54	44803.41
734.73	44930.39
734.91	44582.23
735.10	44418.39
735.29	44840.28
735.47	44510.55
735.66	44836.18
735.84	44336.48
736.03	44299.61
736.22	44502.36
736.40	44293.47
736.59	44694.87
736.78	44676.44
736.96	44361.05
737.15	44518.74
737.33	44014.94
737.52	43939.17
737.71	44014.94
737.89	44207.45
738.08	43763.04
738.27	44074.34
738.45	44563.80
738.64	44440.92
738.82	43935.07
739.01	43826.53
739.20	43758.95
739.38	43986.27
739.57	43887.97
739.75	43996.51
739.94	43617.64
740.13	43808.10
740.31	43509.10
740.50	43863.39
740.68	43607.40
740.87	43730.28
741.06	43287.92
741.24	43601.25
741.43	43306.35
741.61	43656.55
741.80	43210.09
741.99	43189.61
742.17	43113.84
742.36	43357.55
742.54	43502.95
742.73	43320.68
742.91	43603.30
743.10	43453.80
743.29	43470.18
743.47	43468.14
743.66	43382.12
743.84	43214.19
744.03	42896.75
744.21	42937.71
744.40	43095.41
744.59	42769.78
744.77	43107.69
744.96	42519.93
745.14	42917.23
745.33	42990.96
745.51	42986.86
745.70	42917.23
745.88	42196.35
746.07	42685.81
746.26	42476.92
746.44	42691.96
746.63	42714.48
746.81	42632.57
747.00	42458.49
747.18	42241.40
747.37	42239.36
747.55	42573.17
747.74	42702.20
747.92	42259.84
748.11	42139.00
748.29	42380.67
748.48	42208.64
748.66	42161.53
748.85	41960.83
749.03	42153.34
749.22	42341.75
749.41	42003.84
749.59	42186.11
749.78	41850.24
749.96	41844.10
750.15	41647.49
750.33	41778.56
750.52	42198.40
750.70	41928.06
750.89	41553.29
751.07	41538.95
751.26	41581.96
751.44	41670.02
751.63	41391.50
751.81	41373.06
752.00	41268.62
752.18	41561.48
752.37	41389.45
752.55	41162.12
752.74	41065.87
752.92	41213.32
753.10	41266.57
753.29	41223.56
753.47	41235.85
753.66	40623.51
753.84	41055.63
754.03	41012.62
754.21	40797.59
754.40	41178.51
754.58	40979.85
754.77	40791.44
754.95	40484.25
755.14	40711.57
755.32	40510.87
755.51	40662.42
755.69	40953.23
755.88	40924.56
756.06	40213.91
756.24	40431.00
756.43	40103.32
756.61	40314.26
756.80	40361.37
756.98	40273.31
757.17	40375.70
757.35	40357.27
757.54	40136.09
757.72	40441.24
757.90	40101.28
758.09	39955.87
758.27	40381.85
758.46	40093.08
758.64	39949.73
758.83	40222.11
759.01	39837.09
759.19	39908.77
759.38	39978.40
759.56	39886.24
759.75	39749.03
759.93	39605.67
760.12	39566.76
760.30	39435.69
760.48	39665.06
760.67	39765.41
760.85	39708.07
761.04	39495.08
761.22	39843.23
761.40	39370.15
761.59	39443.88
761.77	39343.53
761.96	39218.60
762.14	39366.06
762.32	38886.83
762.51	38870.45
762.69	39048.62
762.88	39208.36
763.06	39374.25
763.24	39030.19
763.43	38757.81
763.61	38718.90
763.80	38864.30
763.98	38575.54
764.16	38643.12
764.35	38641.07
764.53	38215.10
764.72	38839.73
764.90	38794.67
765.08	38211.00
765.27	38862.26
765.45	38333.88
765.63	37991.87
765.82	38487.48
766.00	38176.19
766.18	38596.02
766.37	38047.16
766.55	38239.67
766.74	37885.37
766.92	37612.99
767.10	37989.82
767.29	38180.28
767.47	37598.66
767.65	38028.73
767.84	37715.39
768.02	37766.59
768.20	37526.98
768.39	37744.06
768.57	37455.30
768.75	37686.72
768.94	37406.15
769.12	37567.94
769.30	37471.68
769.49	37373.38
769.67	37443.01
769.85	36808.14
770.04	37352.90
770.22	37176.78
770.40	36713.94
770.59	36787.66
770.77	37141.96
770.95	37199.30
771.14	36609.49
771.32	36888.01
771.50	36699.60
771.69	36912.59
771.87	36812.24
772.05	36744.66
772.24	36589.01
772.42	36867.53
772.60	36537.81
772.78	36279.77
772.97	36220.38
773.15	36683.22
773.33	36476.37
773.52	35892.70
773.70	36642.26
773.88	36652.50
774.07	36560.34
774.25	36150.74
774.43	36302.29
774.61	36404.69
774.80	36687.31
774.98	36369.88
775.16	36634.06
775.34	36701.65
775.53	36062.68
775.71	36320.73
775.89	36586.96
776.08	35982.81
776.26	36632.02
776.44	36179.42
776.62	36087.26
776.81	36257.24
776.99	36337.11
777.17	36398.55
777.35	36646.35
777.54	36238.81
777.72	36525.52
777.90	36345.30
778.08	36918.73
778.27	36447.70
778.45	36654.54
778.63	36752.85
778.81	36398.55
779.00	37129.67
779.18	36804.05
779.36	36783.57
779.54	36664.78
779.73	36355.54
779.91	36724.18
780.09	36842.96
780.27	36810.19
780.46	36697.55
780.64	36836.81
780.82	36687.31
781.00	36883.92
781.19	36670.93
781.37	37103.05
781.55	36726.22
781.73	37250.50
781.91	36566.48
782.10	36769.23
782.28	36861.39
782.46	36552.15
782.64	37131.72
782.82	36419.03
783.01	36464.08
783.19	37240.26
783.37	36795.85
783.55	36658.64
783.74	36842.96
783.92	36947.40
784.10	36845.01
784.28	37029.32
784.46	36689.36
784.64	36513.23
784.83	36672.98
785.01	36619.73
785.19	36752.85
785.37	37090.76
785.55	36767.18
785.74	36584.91
785.92	36826.57
786.10	36971.98
786.28	36427.22
786.46	36404.69
786.64	36347.35
786.83	36390.36
787.01	36488.66
787.19	36423.12
787.37	36046.30
787.55	36167.13
787.74	35937.76
787.92	36236.76
788.10	36179.42
788.28	36156.89
788.46	36720.08
788.64	35931.61
788.82	36195.80
789.01	35831.26
789.19	35919.32
789.37	35681.76
789.55	35716.58
789.73	35653.09
789.91	35884.51
790.09	35841.50
790.28	35237.35
790.46	35460.58
790.64	35544.55
790.82	35511.78
791.00	35028.46
791.18	35304.93
791.36	35091.94
791.55	35026.41
791.73	35229.16
791.91	35104.23
792.09	35034.60
792.27	34833.90
792.45	34823.66
792.63	34997.74
792.81	34967.02
793.00	34717.17
793.18	34655.73
793.36	34596.34
793.54	34430.45
793.72	33840.64
793.90	34053.62
794.08	34321.91
794.26	34485.75
794.44	34235.89
794.62	33789.44
794.81	33799.68
794.99	33551.87
795.17	33721.85
795.35	33492.48
795.53	33519.10
795.71	33762.81
795.89	33488.38
796.07	33097.22
796.25	33218.05
796.43	33275.40
796.61	32972.30
796.80	33078.79
796.98	32814.60
797.16	32740.88
797.34	32937.48
797.52	32624.14
797.70	32923.15
797.88	32298.52
798.06	32572.94
798.24	32728.59
798.42	32550.42
798.60	32306.71
798.78	32407.06
798.96	32345.62
799.14	32157.21
799.32	32538.13
799.51	31839.77
799.69	32151.06
799.87	31874.59
800.05	31665.69
800.23	31598.11
800.41	31452.70
800.59	31659.55
800.77	31417.89
800.95	31405.60
801.13	31381.03
801.31	31227.43
801.49	31295.01
801.67	31079.97
801.85	31577.63
802.03	31180.32
802.21	30969.38
802.39	31004.20
802.57	30996.01
802.75	30762.54
802.93	30762.54
803.11	30742.06
803.29	30361.14
803.47	30629.42
803.65	30504.49
803.83	30475.82
804.01	30336.56
804.19	30154.29
804.37	30357.04
804.55	29847.10
804.73	30242.35
804.91	30164.53
805.09	30015.03
805.27	29845.05
805.45	30008.89
805.63	29605.44
805.81	29808.19
805.99	29544.00
806.17	29627.96
806.35	29611.58
806.53	29118.02
806.71	29484.61
806.89	29220.42
807.07	29298.24
807.25	29218.37
807.43	28804.68
807.61	29304.38
807.79	28941.89
807.97	28704.33
808.15	28689.99
808.33	28855.88
808.51	28751.43
808.69	28636.75
808.87	28497.49
809.05	28587.60
809.23	28444.24
809.41	28474.96
809.59	28526.16
809.77	28706.38
809.95	27999.83
810.13	28257.87
810.31	28065.36
810.49	28182.10
810.67	27897.43
810.84	27831.90
811.02	28048.98
811.20	27989.59
811.38	27858.52
811.56	28016.21
811.74	27840.09
811.92	27565.66
812.10	27473.50
812.28	27833.94
812.46	27516.51
812.64	27604.57
812.82	27477.60
813.00	27143.78
813.18	27352.67
813.36	27025.00
813.53	26996.32
813.71	27022.95
813.89	27096.67
814.07	27139.68
814.25	27094.63
814.43	27065.96
814.61	27002.47
814.79	26848.87
814.97	26992.23
815.15	26721.90
815.33	26619.50
815.50	26625.64
815.68	26537.58
815.86	26478.19
816.04	26570.35
816.22	26338.93
816.40	26400.37
816.58	26244.72
816.76	26072.69
816.94	26068.59
817.11	26078.83
817.29	26050.16
817.47	25843.32
817.65	25794.17
817.83	26087.03
818.01	25865.85
818.19	25740.92
818.37	25757.30
818.54	25466.49
818.72	25419.39
818.90	25929.33
819.08	25480.83
819.26	25917.04
819.44	25226.88
819.62	25611.90
819.80	25564.79
819.97	25372.28
820.15	25605.75
820.33	25372.28
820.51	25427.58
820.69	24936.07
820.87	25468.54
821.05	25468.54
821.22	25073.28
821.40	25112.19
821.58	24807.05
821.76	24891.01
821.94	24915.59
822.12	24837.76
822.29	25038.47
822.47	24858.24
822.65	25036.42
822.83	24888.96
823.01	24671.88
823.19	24661.64
823.36	24565.39
823.54	24727.17
823.72	24616.58
823.90	24192.65
824.08	24520.33
824.25	24510.09
824.43	24520.33
824.61	24419.98
824.79	24147.60
824.97	24315.53
825.15	24297.10
825.32	24376.97
825.50	23854.74
825.68	23967.38
825.86	24032.91
826.04	24141.46
826.21	23725.72
826.39	23991.95
826.57	23971.47
826.75	23869.08
826.93	23570.07
827.10	23574.17
827.28	23705.24
827.46	23615.13
827.64	23705.24
827.81	23350.94
827.99	23707.29
828.17	23408.28
828.35	23287.45
828.53	23602.84
828.70	23404.19
828.88	23320.22
829.06	23559.83
829.24	23432.86
829.41	22951.59
829.59	23164.57
829.77	23250.59
829.95	22873.76
830.12	22961.83
830.30	23142.05
830.48	22963.87
830.66	22929.06
830.84	22982.31
831.01	22754.98
831.19	23041.70
831.37	22742.69
831.55	22730.41
831.72	22722.21
831.90	22949.54
832.08	22818.47
832.25	22744.74
832.43	22709.93
832.61	22593.19
832.79	22541.99
832.96	22519.46
833.14	22625.96
833.32	22601.38
833.50	22900.39
833.67	22591.14
833.85	22286.00
834.03	21974.70
834.20	22460.07
834.38	22279.85
834.56	22199.98
834.74	22148.78
834.91	22173.36
835.09	22107.82
835.27	21968.56
835.44	21800.63
835.62	21767.86
835.80	21614.26
835.98	21954.22
836.15	22105.77
836.33	21894.83
836.51	22103.73
836.68	21970.61
836.86	21962.42
837.04	22066.86
837.21	21700.28
837.39	21954.22
837.57	22075.06
837.75	21763.76
837.92	21370.55
838.10	21649.08
838.28	21552.82
838.45	21786.29
838.63	21724.85
838.81	21528.25
838.98	21286.59
839.16	21636.79
839.34	21337.79
839.51	21595.83
839.69	21046.97
839.87	21192.38
840.04	21411.51
840.22	21180.09
840.40	21141.18
840.57	21216.96
840.75	21485.24
840.93	20940.48
841.10	21059.26
841.28	21417.66
841.46	20901.57
841.63	21014.21
841.81	20960.96
841.98	20948.67
842.16	21083.84
842.34	20905.66
842.51	20688.58
842.69	20903.62
842.87	20811.46
843.04	20907.71
843.22	20549.32
843.40	20817.60
843.57	20817.60
843.75	20833.99
843.92	20952.77
844.10	20999.87
844.28	20541.13
844.45	20653.76
844.63	20727.49
844.81	20485.83
844.98	20436.68
845.16	20549.32
845.33	20422.34
845.51	20362.95
845.69	20231.88
845.86	20317.90
846.04	20258.51
846.21	20287.18
846.39	20381.38
846.57	20008.65
846.74	20160.20
846.92	20063.95
847.09	20178.64
847.27	19908.30
847.45	19982.03
847.62	19906.26
847.80	20235.98
847.97	19910.35
848.15	19836.63
848.32	20041.42
848.50	20078.29
848.68	19918.54
848.85	20016.85
849.03	19805.91
849.20	19953.36
849.38	19803.86
849.56	19840.72
849.73	19771.09
849.91	19912.40
850.08	19691.22
850.26	19482.33
850.43	19508.95
850.61	19613.40
850.78	19330.78
850.96	19343.06
851.14	19103.45
851.31	19119.84
851.49	19349.21
851.66	19275.48
851.84	19658.45
852.01	19367.64
852.19	19259.10
852.36	19261.15
852.54	19283.67
852.71	19359.45
852.89	19295.96
853.07	19082.97
853.24	19218.14
853.42	19103.45
853.59	19171.04
853.77	19023.58
853.94	19205.85
854.12	19138.27
854.29	18826.98
854.47	18900.70
854.64	18603.75
854.82	18837.22
854.99	19082.97
855.17	18990.81
855.34	18728.67
855.52	18992.86
855.69	18732.77
855.87	18607.84
856.04	18536.17
856.22	18577.12
856.39	18530.02
856.57	18611.94
856.74	18607.84
856.92	18581.22
857.09	18513.64
857.27	18425.57
857.44	18585.32
857.62	18613.99
857.79	18319.08
857.97	18231.02
858.14	18216.68
858.32	18208.49
858.49	18067.18
858.67	18282.22
858.84	18089.71
859.02	18368.23
859.19	18048.75
859.37	18435.81
859.54	18056.94
859.72	18188.01
859.89	18005.74
860.06	18085.61
860.24	17968.88
860.41	18188.01
860.59	17794.80
860.76	18288.36
860.94	17680.11
861.11	17954.54
861.29	17800.94
861.46	17680.11
861.64	17796.85
861.81	17686.26
861.98	17647.35
862.16	17604.34
862.33	17514.23
862.51	17463.03
862.68	17944.30
862.86	17542.90
863.03	17622.77
863.21	17561.33
863.38	17565.43
863.55	17737.46
863.73	17458.93
863.90	17473.27
864.08	17317.62
864.25	17127.16
864.43	17540.85
864.60	17075.96
864.77	17131.26
864.95	17221.37
865.12	17176.31
865.30	16977.66
865.47	17137.40
865.64	17153.79
865.82	17075.96
865.99	17155.83
866.17	17082.11
866.34	17170.17
866.51	16682.75
866.69	16940.80
866.86	16889.60
867.04	16848.64
867.21	16944.89
867.38	16641.79
867.56	16764.67
867.73	16738.05
867.91	16748.29
868.08	16543.49
868.25	16492.29
868.43	16326.41
868.60	16453.38
868.78	16275.21
868.95	16674.56
869.12	16467.72
869.30	16508.68
869.47	16357.13
869.64	16654.08
869.82	16305.93
869.99	16015.12
870.16	16461.57
870.34	16322.31
870.51	16224.01
870.69	16084.75
870.86	16228.10
871.03	16205.58
871.21	16279.30
871.38	16168.71
871.55	16119.56
871.73	16023.31
871.90	15990.54
872.07	15816.46
872.25	16017.16
872.42	15851.28
872.59	15812.37
872.77	15716.11
872.94	15699.73
873.11	15662.86
873.29	15673.10
873.46	15466.26
873.63	15484.69
873.81	15664.91
873.98	15400.72
874.15	15546.13
874.33	15216.41
874.50	15400.72
874.67	15275.80
874.85	15091.48
875.02	15316.76
875.19	15292.18
875.37	15144.73
875.54	14855.97
875.71	15359.77
875.88	14825.25
876.06	15154.97
876.23	15046.43
876.40	14925.60
876.58	14941.98
876.75	14999.32
876.92	15163.16
877.10	14815.01
877.27	14677.79
877.44	14987.04
877.61	14655.26
877.79	14700.32
877.96	14608.16
878.13	14851.87
878.31	14616.35
878.48	14384.93
878.65	14653.22
878.82	14540.58
879.00	14692.13
879.17	14630.69
879.34	14700.32
879.51	14522.15
879.69	14427.94
879.86	14284.58
880.03	14567.20
880.21	14188.33
880.38	14413.60
880.55	14493.47
880.72	14198.57
880.90	14442.28
881.07	14315.30
881.24	14335.78
881.41	14294.82
881.59	14114.60
881.76	14284.58
881.93	14173.99
882.10	14040.87
882.28	13936.43
882.45	14219.05
882.62	14145.32
882.79	14024.49
882.96	13727.53
883.14	13971.24
883.31	14079.79
883.48	14139.18
883.65	13958.96
883.83	14200.62
884.00	13924.14
884.17	13932.33
884.34	14010.15
884.51	14014.25
884.69	13580.08
884.86	14001.96
885.03	13815.60
885.20	13649.71
885.38	13750.06
885.55	13788.97
885.72	13471.54
885.89	13688.62
886.06	13967.15
886.24	13623.09
886.41	13618.99
886.58	13594.42
886.75	13813.55
886.92	13418.29
887.10	13686.58
887.27	13463.35
887.44	13586.22
887.61	13403.96
887.78	13756.21
887.95	13498.16
888.13	13547.31
888.30	13217.59
888.47	13324.08
888.64	13344.56
888.81	13514.55
888.99	13670.19
889.16	13231.93
889.33	13233.97
889.50	13340.47
889.67	13115.19
889.84	13129.53
890.01	12937.02
890.19	13240.12
890.36	13252.41
890.53	12990.27
890.70	13199.16
890.87	13055.80
891.04	12689.21
891.22	12951.35
891.39	13133.62
891.56	12812.09
891.73	12990.27
891.90	12990.27
892.07	12873.53
892.24	12908.35
892.42	12906.30
892.59	13037.37
892.76	12853.05
892.93	12810.04
893.10	12855.10
893.27	12828.48
893.44	12752.70
893.61	12951.35
893.79	12848.96
893.96	12875.58
894.13	12822.33
894.30	12595.01
894.47	12724.03
894.64	12865.34
894.81	12658.49
894.98	12842.81
895.15	12640.06
895.33	12703.55
895.50	12693.31
895.67	12914.49
895.84	12488.51
896.01	12650.30
896.18	12635.97
896.35	12621.63
896.52	12633.92
896.69	12463.94
896.86	12457.79
897.04	12422.98
897.21	12506.95
897.38	12543.81
897.55	12660.54
897.72	12691.26
897.89	12746.56
898.06	12517.18
898.23	12607.30
898.40	12552.00
898.57	12492.61
898.74	12474.18
898.91	12386.12
899.08	12441.41
899.26	12480.32
899.43	12539.71
899.60	12586.82
899.77	12365.64
899.94	12402.50
900.11	12277.57
900.28	12508.99
900.45	12457.79
900.62	12328.77
900.79	12541.76
900.96	12418.88
901.13	12494.66
901.30	12463.94
901.47	12363.59
901.64	12451.65
901.81	12343.11
901.98	12187.46
902.15	12474.18
902.32	12271.43
902.49	12166.98
902.66	12396.35
902.83	12377.92
903.01	12293.96
903.18	12289.86
903.35	12314.44
903.52	12234.57
903.69	12328.77
903.86	12386.12
904.03	12431.17
904.20	12359.49
904.37	12345.16
904.54	12328.77
904.71	12296.00
904.88	12209.99
905.05	11970.38
905.22	12287.81
905.39	12271.43
905.56	12341.06
905.73	12132.17
905.90	12273.48
906.07	12232.52
906.24	12181.32
906.41	12302.15
906.58	12222.28
906.75	12195.65
906.92	12083.02
907.09	12283.72
907.26	12259.14
907.43	12193.61
907.60	11982.67
907.77	12212.04
907.93	12113.74
908.10	11939.66
908.27	12154.69
908.44	11986.76
908.61	11966.28
908.78	12001.10
908.95	11988.81
909.12	12060.49
909.29	11931.47
909.46	11906.89
909.63	11972.43
909.80	12169.03
909.97	12048.20
910.14	11941.71
910.31	12076.87
910.48	11941.71
910.65	11888.46
910.82	11759.44
910.99	11665.23
911.16	11669.33
911.33	11847.50
911.50	11822.92
911.66	11913.03
911.83	11888.46
912.00	11706.19
912.17	11726.67
912.34	11867.98
912.51	11683.66
912.68	11706.19
912.85	11769.68
913.02	11804.49
913.19	11566.93
913.36	11575.12
913.53	11515.73
913.70	11521.87
913.86	11597.65
914.03	11505.49
914.20	11603.79
914.37	11528.02
914.54	11347.79
914.71	11493.20
914.88	11370.32
915.05	11489.10
915.22	11386.71
915.39	11433.81
915.55	11243.35
915.72	11396.95
915.89	11269.97
916.06	11024.22
916.23	11050.84
916.40	11005.78
916.57	11286.36
916.74	11128.66
916.91	11005.78
917.07	11073.37
917.24	11032.41
917.41	11052.89
917.58	11036.50
917.75	11065.18
917.92	10800.99
918.09	11075.42
918.26	10764.12
918.42	10891.10
918.59	10944.34
918.76	10848.09
918.93	10712.92
919.10	10721.12
919.27	10762.08
919.44	10768.22
919.60	10645.34
919.77	10585.95
919.94	10659.68
920.11	10547.04
920.28	10647.39
920.45	10633.05
920.61	10438.50
920.78	10399.59
920.95	10465.12
921.12	10176.36
921.29	10329.95
921.46	10420.06
921.62	10145.64
921.79	10297.19
921.96	10237.80
922.13	10069.86
922.30	10182.50
922.47	10016.62
922.63	9901.93
922.80	9744.24
922.97	9797.48
923.14	9762.67
923.31	9901.93
923.47	9676.65
923.64	9789.29
923.81	9858.92
923.98	9690.99
924.15	9758.57
924.32	9756.52
924.48	9858.92
924.65	9838.44
924.82	9498.48
924.99	9545.58
925.15	9461.62
925.32	9414.51
925.49	9256.82
925.66	9451.38
925.83	9277.30
925.99	9461.62
926.16	9299.83
926.33	9303.92
926.50	9162.61
926.67	9209.72
926.83	9080.69
927.00	9152.37
927.17	9191.28
927.34	8894.33
927.50	8906.62
927.67	9209.72
927.84	9004.92
928.01	9033.59
928.17	8798.07
928.34	8892.28
928.51	8783.74
928.68	8830.84
928.84	8652.67
929.01	8630.14
929.18	8519.55
929.35	8681.34
929.51	8445.82
929.68	8509.31
929.85	8576.89
930.02	8617.85
930.18	8560.51
930.35	8341.38
930.52	8556.41
930.69	8384.38
930.85	8271.75
931.02	8271.75
931.19	8103.81
931.36	8187.78
931.52	8058.76
931.69	8085.38
931.86	7995.27
932.02	8161.16
932.19	8128.39
932.36	7907.21
932.53	7851.91
932.69	7802.76
932.86	7808.90
933.03	7946.12
933.19	7544.72
933.36	7690.12
933.53	7894.92
933.70	7733.13
933.86	7792.52
934.03	7686.03
934.20	7630.73
934.36	7692.17
934.53	7491.47
934.70	7243.67
934.86	7552.91
935.03	7192.47
935.20	7206.80
935.36	7098.26
935.53	7137.17
935.70	7122.84
935.86	7266.19
936.03	6993.81
936.20	6789.02
936.36	6829.98
936.53	6870.94
936.70	6954.90
936.86	6850.46
937.03	6703.00
937.20	6659.99
937.36	6582.17
937.53	6350.75
937.70	6391.71
937.86	6240.16
938.03	6397.85
938.20	6350.75
938.36	6178.72
938.53	6168.48
938.70	6010.79
938.86	6080.42
939.03	5935.01
939.20	5767.08
939.36	5801.90
939.53	5724.07
939.70	5730.22
939.86	5646.25
940.03	5554.09
940.19	5552.04
940.36	5543.85
940.53	5531.56
940.69	5330.86
940.86	5351.34
941.03	5181.36
941.19	5185.46
941.36	5212.08
941.52	5257.14
941.69	5021.62
941.86	5023.67
942.02	4894.65
942.19	4874.17
942.35	5097.39
942.52	4933.56
942.69	4972.47
942.85	4827.06
943.02	4792.25
943.18	4761.53
943.35	4714.42
943.52	4693.94
943.68	4681.66
943.85	4624.31
944.01	4571.07
944.18	4564.92
944.35	4634.55
944.51	4507.58
944.68	4495.29
944.84	4534.20
945.01	4347.84
945.17	4331.45
945.34	4315.07
945.51	4466.62
945.67	4468.67
945.84	4356.03
946.00	4327.36
946.17	4452.28
946.33	4308.93
946.50	4339.65
946.67	4415.42
946.83	4427.71
947.00	4374.46
947.16	4349.89
947.33	4341.69
947.49	4360.13
947.66	4368.32
947.82	4378.56
947.99	4349.89
948.16	4446.14
948.32	4351.93
948.49	4335.55
948.65	4300.73
948.82	4302.78
948.98	4192.19
949.15	4179.90
949.31	4358.08
949.48	4386.75
949.64	4380.61
949.81	4304.83
949.97	4235.20
950.14	4390.84
950.30	4345.79
950.47	4386.75
950.63	4335.55
950.80	4345.79
950.96	4239.30
951.13	4317.12
951.30	4407.23
951.46	4306.88
951.63	4272.06
951.79	4358.08
951.96	4446.14
952.12	4274.11
952.29	4401.08
952.45	4364.22
952.62	4456.38
952.78	4300.73
952.94	4390.84
953.11	4274.11
953.27	4308.93
953.44	4528.06
953.60	4372.41
953.77	4478.91
953.93	4388.80
954.10	4378.56
954.26	4466.62
954.43	4413.37
954.59	4317.12
954.76	4526.01
954.92	4374.46
955.09	4409.28
955.25	4517.82
955.42	4464.57
955.58	4513.72
955.75	4437.95
955.91	4401.08
956.07	4351.93
956.24	4431.80
956.40	4425.66
956.57	4495.29
956.73	4399.04
956.90	4423.61
957.06	4513.72
957.23	4573.11
957.39	4429.76
957.56	4503.48
957.72	4284.35
957.88	4286.40
958.05	4460.48
958.21	4480.96
958.38	4437.95
958.54	4476.86
958.71	4454.33
958.87	4343.74
959.03	4339.65
959.20	4456.38
959.36	4374.46
959.53	4423.61
959.69	4431.80
959.85	4417.47
960.02	4396.99
960.18	4396.99
960.35	4366.27
960.51	4499.39
960.68	4521.92
960.84	4290.49
961.00	4452.28
961.17	4298.69
961.33	4370.37
961.50	4440.00
961.66	4440.00
961.82	4382.65
961.99	4532.15
962.15	4378.56
962.31	4315.07
962.48	4372.41
962.64	4505.53
962.81	4396.99
962.97	4513.72
963.13	4317.12
963.30	4394.94
963.46	4448.19
963.62	4251.58
963.79	4335.55
963.95	4425.66
964.12	4356.03
964.28	4390.84
964.44	4356.03
964.61	4427.71
964.77	4300.73
964.93	4351.93
965.10	4224.96
965.26	4235.20
965.42	4405.18
965.59	4358.08
965.75	4298.69
965.92	4290.49
966.08	4255.68
966.24	4261.82
966.41	4206.53
966.57	4241.34
966.73	4167.62
966.90	4362.17
967.06	4116.42
967.22	4202.43
967.39	4218.82
967.55	4085.70
967.71	4210.62
967.88	4280.25
968.04	4186.05
968.20	4196.29
968.37	4124.61
968.53	4110.27
968.69	4116.42
968.85	4278.21
969.02	4188.10
969.18	4278.21
969.34	4208.58
969.51	4200.38
969.67	4165.57
969.83	4130.75
970.00	4188.10
970.16	4102.08
970.32	4061.12
970.48	4179.90
970.65	4048.83
970.81	4136.90
970.97	4044.74
971.14	4040.64
971.30	4100.03
971.46	4087.75
971.63	4011.97
971.79	4063.17
971.95	4149.18
972.11	3887.04
972.28	4093.89
972.44	4007.87
972.60	3997.64
972.76	3983.30
972.93	3934.15
973.09	3968.96
973.25	3960.77
973.42	4016.07
973.58	3928.00
973.74	4052.93
973.90	3923.91
974.07	3977.16
974.23	4007.87
974.39	3870.66
974.55	3973.06
974.72	4040.64
974.88	3866.56
975.04	4009.92
975.20	3721.16
975.37	3921.86
975.53	3913.67
975.69	3940.29
975.85	3932.10
976.01	3975.11
976.18	3829.70
976.34	3807.17
976.50	3903.43
976.66	3792.84
976.83	3794.89
976.99	3803.08
977.15	3786.69
977.31	3745.73
977.47	3801.03
977.64	3817.41
977.80	3778.50
977.96	3809.22
978.12	3698.63
978.29	3805.13
978.45	3715.02
978.61	3760.07
978.77	3809.22
978.93	3725.26
979.10	3755.97
979.26	3637.19
979.42	3743.69
979.58	3688.39
979.74	3751.88
979.91	3657.67
980.07	3592.14
980.23	3696.58
980.39	3608.52
980.55	3622.86
980.71	3620.81
980.88	3618.76
981.04	3561.42
981.20	3567.56
981.36	3715.02
981.52	3585.99
981.68	3633.10
981.85	3557.32
982.01	3600.33
982.17	3643.34
982.33	3610.57
982.49	3590.09
982.65	3477.45
982.82	3438.54
982.98	3610.57
983.14	3502.03
983.30	3540.94
983.46	3534.79
983.62	3598.28
983.79	3577.80
983.95	3444.68
984.11	3368.91
984.27	3424.20
984.43	3452.88
984.59	3454.92
984.75	3459.02
984.91	3377.10
985.08	3362.76
985.24	3530.70
985.40	3381.20
985.56	3352.52
985.72	3295.18
985.88	3248.08
986.04	3239.89
986.20	3301.33
986.37	3381.20
986.53	3346.38
986.69	3405.77
986.85	3291.09
987.01	3327.95
987.17	3315.66
987.33	3254.22
987.49	3170.26
987.65	3325.90
987.82	3203.02
987.98	3297.23
988.14	3411.92
988.30	3243.98
988.46	3176.40
988.62	3194.83
988.78	3164.11
988.94	3207.12
989.10	3155.92
989.26	3131.34
989.42	3248.08
989.59	3149.78
989.75	3088.34
989.91	3157.97
990.07	3123.15
990.23	3119.06
990.39	3178.45
990.55	3207.12
990.71	3137.49
990.87	3071.95
991.03	3188.69
991.19	2973.65
991.35	3074.00
991.51	3065.81
991.67	3139.54
991.83	3076.05
992.00	3067.86
992.16	3065.81
992.32	3008.47
992.48	3096.53
992.64	3108.82
992.80	3035.09
992.96	2996.18
993.12	3000.27
993.28	3076.05
993.44	3004.37
993.60	3055.57
993.76	2965.46
993.92	3065.81
994.08	2965.46
994.24	3006.42
994.40	3006.42
994.56	2953.17
994.72	2928.60
994.88	2965.46
995.04	2854.87
995.20	2930.64
995.36	2904.02
995.52	2918.36
995.68	2987.99
995.84	2930.64
996.00	2994.13
996.16	2926.55
996.32	2852.82
996.48	2877.40
996.64	2820.05
996.80	2891.73
996.96	2793.43
997.12	2793.43
997.28	2762.71
997.44	2854.87
997.60	2889.68
997.76	2856.92
997.92	2801.62
998.08	2828.24
998.24	2727.89
998.40	2740.18
998.56	2756.57
998.72	2672.60
998.88	2736.09
999.04	2738.13
999.20	2805.72
999.36	2756.57
999.52	2777.05
999.68	2686.94
999.84	2729.94
1000.00	2627.54
1000.16	2693.08
1000.32	2676.70
1000.48	2754.52
1000.64	2623.45
1000.80	2664.41
1000.95	2590.68
1001.11	2635.74
1001.27	2582.49
1001.43	2688.98
1001.59	2654.17
1001.75	2748.37
1001.91	2664.41
1002.07	2664.41
1002.23	2652.12
1002.39	2598.87
1002.55	2590.68
1002.71	2637.78
1002.87	2752.47
1003.03	2607.06
1003.19	2578.39
1003.34	2568.15
1003.50	2625.50
1003.66	2574.30
1003.82	2475.99
1003.98	2572.25
1004.14	2555.86
1004.30	2482.14
1004.46	2504.67
1004.62	2533.34
1004.78	2496.47
1004.94	2547.67
1005.09	2543.58
1005.25	2521.05
1005.41	2471.90
1005.57	2443.23
1005.73	2510.81
1005.89	2445.27
1006.05	2482.14
1006.21	2482.14
1006.37	2430.94
1006.52	2412.51
1006.68	2439.13
1006.84	2480.09
1007.00	2482.14
1007.16	2584.54
1007.32	2330.59
1007.48	2459.61
1007.64	2478.04
1007.79	2416.60
1007.95	2398.17
1008.11	2416.60
1008.27	2426.84
1008.43	2432.99
1008.59	2402.27
1008.75	2510.81
1008.91	2353.12
1009.06	2314.20
1009.22	2443.23
1009.38	2361.31
1009.54	2406.36
1009.70	2320.35
1009.86	2363.36
1010.01	2437.08
1010.17	2375.64
1010.33	2424.80
1010.49	2426.84
1010.65	2334.68
1010.81	2295.77
1010.96	2381.79
1011.12	2267.10
1011.28	2377.69
1011.44	2258.91
1011.60	2381.79
1011.76	2428.89
1011.91	2330.59
1012.07	2240.48
1012.23	2306.01
1012.39	2306.01
1012.55	2207.71
1012.71	2332.64
1012.86	2269.15
1013.02	2312.16
1013.18	2238.43
1013.34	2263.01
1013.50	2351.07
1013.65	2265.05
1013.81	2291.68
1013.97	2224.09
1014.13	2246.62
1014.29	2117.60
1014.44	2230.24
1014.60	2265.05
1014.76	2222.05
1014.92	2211.81
1015.07	2201.57
1015.23	2224.09
1015.39	2174.94
1015.55	2215.90
1015.71	2234.33
1015.86	2146.27
1016.02	2211.81
1016.18	2133.98
1016.34	2217.95
1016.49	2172.89
1016.65	2138.08
1016.81	2099.17
1016.97	2158.56
1017.12	2129.89
1017.28	2172.89
1017.44	2107.36
1017.60	2117.60
1017.75	2093.02
1017.91	2099.17
1018.07	2170.85
1018.23	2136.03
1018.38	2176.99
1018.54	2109.41
1018.70	2189.28
1018.86	2078.69
1019.01	2105.31
1019.17	2084.83
1019.33	2111.46
1019.49	2088.93
1019.64	2117.60
1019.80	2039.78
1019.96	2031.58
1020.12	2156.51
1020.27	2023.39
1020.43	2074.59
1020.59	2037.73
1020.74	2035.68
1020.90	2101.22
1021.06	2011.11
1021.22	2015.20
1021.37	2050.02
1021.53	1996.77
1021.69	2093.02
1021.84	1953.76
1022.00	2064.35
1022.16	1978.34
1022.31	2148.32
1022.47	1996.77
1022.63	2035.68
1022.79	2015.20
1022.94	1896.42
1023.10	2017.25
1023.26	1990.63
1023.41	1972.19
1023.57	1996.77
1023.73	1972.19
1023.88	1988.58
1024.04	1941.47
1024.20	2004.96
1024.35	1937.38
1024.51	2105.31
1024.67	2004.96
1024.82	1984.48
1024.98	1961.95
1025.14	1888.23
1025.29	1972.19
1025.45	1988.58
1025.61	1871.84
1025.76	2002.91
1025.92	1941.47
1026.08	1945.57
1026.23	1904.61
1026.39	1992.67
1026.55	1951.71
1026.70	1902.56
1026.86	1902.56
1027.02	1957.86
1027.17	1912.80
1027.33	1951.71
1027.48	1935.33
1027.64	1908.71
1027.80	1974.24
1027.95	1855.46
1028.11	1886.18
1028.27	1914.85
1028.42	1957.86
1028.58	1886.18
1028.73	1892.32
1028.89	1763.30
1029.05	1937.38
1029.20	1886.18
>>>>>End Processed Spectral Data<<<<<
