SpectraSuite Data File
++++++++++++++++++++++++++++++++++++
Date: Tue Jun 13 11:53:15 CEST 2017
User: INFO_000
Dark Spectrum Present: No
Reference Spectrum Present: No
Number of Sampled Component Spectra: 1
Spectrometers: USB4H00879
Integration Time (usec): 30000 (USB4H00879)
Spectra Averaged: 1 (USB4H00879)
Boxcar Smoothing: 0 (USB4H00879)
Correct for Electrical Dark: No (USB4H00879)
Strobe/Lamp Enabled: No (USB4H00879)
Correct for Detector Non-linearity: No (USB4H00879)
Correct for Stray Light: No (USB4H00879)
Number of Pixels in Processed Spectrum: 3648
>>>>>Begin Processed Spectral Data<<<<<
345.13	1312.75
345.34	1312.75
345.56	1312.75
345.78	1312.75
345.99	1353.71
346.21	1523.69
346.42	1486.83
346.64	1495.02
346.86	1556.46
347.07	1507.30
347.29	1599.46
347.50	1445.87
347.72	1523.69
347.94	1509.35
348.15	1445.87
348.37	1503.21
348.59	1576.94
348.80	1474.54
349.02	1566.70
349.23	1654.76
349.45	1585.13
349.67	1613.80
349.88	1609.70
350.10	1654.76
350.31	1638.38
350.53	1613.80
350.75	1644.52
350.96	1542.12
351.18	1669.09
351.39	1652.71
351.61	1708.01
351.82	1591.27
352.04	1720.29
352.26	1560.55
352.47	1654.76
352.69	1624.04
352.90	1548.26
353.12	1683.43
353.34	1605.61
353.55	1654.76
353.77	1566.70
353.98	1529.83
354.20	1605.61
354.41	1642.47
354.63	1640.42
354.85	1662.95
355.06	1593.32
355.28	1546.22
355.49	1619.94
355.71	1611.75
355.92	1591.27
356.14	1669.09
356.35	1640.42
356.57	1585.13
356.79	1654.76
357.00	1687.53
357.22	1630.18
357.43	1675.24
357.65	1632.23
357.86	1669.09
358.08	1628.14
358.29	1660.90
358.51	1710.05
358.72	1675.24
358.94	1673.19
359.16	1619.94
359.37	1644.52
359.59	1677.29
359.80	1695.72
360.02	1708.01
360.23	1685.48
360.45	1703.91
360.66	1720.29
360.88	1644.52
361.09	1644.52
361.31	1675.24
361.52	1697.77
361.74	1722.34
361.95	1703.91
362.17	1689.57
362.38	1699.81
362.60	1648.61
362.81	1681.38
363.03	1693.67
363.24	1691.62
363.46	1701.86
363.67	1769.44
363.89	1718.25
364.10	1665.00
364.32	1710.05
364.53	1796.07
364.75	1675.24
364.96	1714.15
365.18	1753.06
365.39	1738.73
365.61	1652.71
365.82	1837.03
366.04	1744.87
366.25	1759.21
366.47	1728.49
366.68	1751.01
366.90	1667.05
367.11	1777.64
367.33	1734.63
367.54	1796.07
367.76	1761.25
367.97	1804.26
368.19	1740.77
368.40	1773.54
368.62	1761.25
368.83	1779.68
369.05	1834.98
369.26	1787.88
369.48	1726.44
369.69	1769.44
369.91	1841.12
370.12	1814.50
370.33	1802.21
370.55	1744.87
370.76	1742.82
370.98	1734.63
371.19	1765.35
371.41	1738.73
371.62	1820.64
371.84	1734.63
372.05	1806.31
372.27	1720.29
372.48	1773.54
372.69	1861.60
372.91	1826.79
373.12	1808.36
373.34	1853.41
373.55	1808.36
373.77	1953.76
373.98	1787.88
374.20	1900.52
374.41	2011.11
374.62	1806.31
374.84	1855.46
375.05	1869.80
375.27	1904.61
375.48	1865.70
375.70	1929.19
375.91	1927.14
376.12	1877.99
376.34	1855.46
376.55	1890.28
376.77	1914.85
376.98	1920.99
377.19	1947.62
377.41	1898.47
377.62	1945.57
377.84	1902.56
378.05	1937.38
378.27	1925.09
378.48	1966.05
378.69	2047.97
378.91	1906.66
379.12	1910.75
379.34	1894.37
379.55	2037.73
379.76	1906.66
379.98	2017.25
380.19	1914.85
380.41	1918.95
380.62	2039.78
380.83	1961.95
381.05	1978.34
381.26	2007.01
381.47	2017.25
381.69	1925.09
381.90	2058.21
382.12	1966.05
382.33	1961.95
382.54	1998.82
382.76	1945.57
382.97	2039.78
383.19	1994.72
383.40	2058.21
383.61	1986.53
383.83	1990.63
384.04	2086.88
384.25	2052.06
384.47	2033.63
384.68	2103.26
384.89	2007.01
385.11	2088.93
385.32	2037.73
385.54	2033.63
385.75	2095.07
385.96	2166.75
386.18	2123.74
386.39	2127.84
386.60	2025.44
386.82	2052.06
387.03	2133.98
387.24	2142.18
387.46	2099.17
387.67	2187.23
387.88	2146.27
388.10	2228.19
388.31	2111.46
388.52	2205.66
388.74	2185.18
388.95	2244.57
389.16	2187.23
389.38	2238.43
389.59	2269.15
389.80	2283.49
390.02	2285.53
390.23	2281.44
390.44	2244.57
390.66	2240.48
390.87	2224.09
391.08	2303.96
391.30	2381.79
391.51	2248.67
391.72	2256.86
391.94	2400.22
392.15	2308.06
392.36	2295.77
392.58	2240.48
392.79	2385.88
393.00	2336.73
393.22	2334.68
393.43	2396.12
393.64	2502.62
393.85	2406.36
394.07	2383.84
394.28	2387.93
394.49	2439.13
394.71	2349.02
394.92	2424.80
395.13	2404.32
395.35	2443.23
395.56	2406.36
395.77	2504.67
395.98	2512.86
396.20	2521.05
396.41	2512.86
396.62	2549.72
396.84	2514.91
397.05	2527.19
397.26	2512.86
397.47	2568.15
397.69	2531.29
397.90	2562.01
398.11	2562.01
398.32	2582.49
398.54	2605.02
398.75	2619.35
398.96	2648.02
399.18	2703.32
399.39	2602.97
399.60	2633.69
399.81	2617.30
400.03	2713.56
400.24	2795.48
400.45	2576.34
400.66	2723.80
400.88	2668.50
401.09	2756.57
401.30	2781.14
401.51	2691.03
401.73	2801.62
401.94	2727.89
402.15	2805.72
402.36	2725.85
402.58	2777.05
402.79	2789.33
403.00	2844.63
403.21	2748.37
403.43	2740.18
403.64	2846.68
403.85	2740.18
404.06	2842.58
404.27	2750.42
404.49	2803.67
404.70	2844.63
404.91	2846.68
405.12	2871.25
405.34	2906.07
405.55	2990.03
405.76	2867.16
405.97	2861.01
406.19	3030.99
406.40	2967.51
406.61	2930.64
406.82	2947.03
407.03	2969.55
407.25	2877.40
407.46	2922.45
407.67	3028.95
407.88	2947.03
408.09	3008.47
408.31	3002.32
408.52	2998.23
408.73	3012.56
408.94	3006.42
409.15	3100.62
409.37	3225.55
409.58	3069.91
409.79	3119.06
410.00	3082.19
410.21	3084.24
410.43	3071.95
410.64	3049.43
410.85	3067.86
411.06	3160.02
411.27	3160.02
411.48	3217.36
411.70	3196.88
411.91	3172.30
412.12	3178.45
412.33	3190.74
412.54	3164.11
412.76	3266.51
412.97	3270.61
413.18	3137.49
413.39	3182.54
413.60	3278.80
413.81	3280.85
414.03	3250.13
414.24	3295.18
414.45	3375.05
414.66	3352.52
414.87	3346.38
415.08	3344.33
415.30	3381.20
415.51	3485.64
415.72	3340.24
415.93	3301.33
416.14	3362.76
416.35	3471.31
416.56	3430.35
416.78	3413.96
416.99	3506.12
417.20	3555.27
417.41	3442.64
417.62	3555.27
417.83	3520.46
418.04	3475.40
418.26	3516.36
418.47	3428.30
418.68	3604.42
418.89	3508.17
419.10	3530.70
419.31	3653.58
419.52	3665.86
419.73	3690.44
419.95	3737.54
420.16	3540.94
420.37	3590.09
420.58	3604.42
420.79	3536.84
421.00	3680.20
421.21	3719.11
421.42	3723.21
421.63	3782.60
421.85	3819.46
422.06	3760.07
422.27	3786.69
422.48	3772.36
422.69	3850.18
422.90	3825.61
423.11	3739.59
423.32	3878.85
423.53	3944.39
423.75	3903.43
423.96	3913.67
424.17	3885.00
424.38	4067.27
424.59	4042.69
424.80	4108.23
425.01	4018.11
425.22	4005.83
425.43	3983.30
425.64	4253.63
425.85	4149.18
426.06	4059.07
426.28	4212.67
426.49	3968.96
426.70	4083.65
426.91	4138.94
427.12	4302.78
427.33	4212.67
427.54	4186.05
427.75	4296.64
427.96	4511.68
428.17	4200.38
428.38	4413.37
428.59	4519.87
428.80	4243.39
429.01	4476.86
429.23	4440.00
429.44	4575.16
429.65	4614.07
429.86	4517.82
430.07	4382.65
430.28	4509.63
430.49	4487.10
430.70	4564.92
430.91	4640.70
431.12	4595.64
431.33	4739.00
431.54	4630.46
431.75	4573.11
431.96	4718.52
432.17	4620.22
432.38	4671.42
432.59	4804.53
432.80	4837.30
433.01	4804.53
433.22	4847.54
433.43	4788.15
433.64	4831.16
433.85	4763.58
434.06	5019.57
434.27	4884.41
434.49	5005.24
434.70	5021.62
434.91	4886.45
435.12	4870.07
435.33	5070.77
435.54	4884.41
435.75	4880.31
435.96	5128.11
436.17	4865.97
436.38	5121.97
436.59	5244.85
436.80	5066.67
437.01	5230.51
437.22	5207.98
437.43	5255.09
437.64	5197.74
437.85	5113.78
438.06	5283.76
438.27	5203.89
438.48	5185.46
438.69	5267.38
438.90	5349.29
439.11	5265.33
439.32	5392.30
439.53	5377.97
439.74	5386.16
439.95	5480.36
440.16	5414.83
440.37	5337.01
440.57	5502.89
440.78	5527.47
440.99	5486.51
441.20	5541.80
441.41	5627.82
441.62	5535.66
441.83	5380.01
442.04	5593.00
442.25	5689.26
442.46	5607.34
442.67	5750.70
442.88	5992.36
443.09	5560.24
443.30	5670.83
443.51	5648.30
443.72	6070.18
443.93	5719.98
444.14	5945.25
444.35	5681.07
444.56	5838.76
444.77	5982.12
444.98	5662.63
445.19	5910.44
445.40	5873.57
445.61	5881.77
445.81	5896.10
446.02	5941.16
446.23	5842.85
446.44	5865.38
446.65	5949.35
446.86	5965.73
447.07	6053.80
447.28	6449.05
447.49	6039.46
447.70	6066.08
447.91	6127.52
448.12	6109.09
448.33	6315.94
448.54	6131.62
448.74	6127.52
448.95	6074.28
449.16	6051.75
449.37	6424.48
449.58	6227.87
449.79	6530.97
450.00	6223.78
450.21	6188.96
450.42	6590.36
450.63	6506.40
450.84	6514.59
451.05	6569.88
451.25	6514.59
451.46	6588.32
451.67	6549.40
451.88	6662.04
452.09	6653.85
452.30	6725.53
452.51	6696.86
452.72	6885.27
452.93	6944.66
453.13	6655.90
453.34	6754.20
453.55	6715.29
453.76	6719.39
453.97	7182.23
454.18	6907.80
454.39	6885.27
454.60	6926.23
454.81	6995.86
455.01	7225.23
455.22	6883.22
455.43	6858.65
455.64	7223.19
455.85	7288.72
456.06	7430.03
456.27	7128.98
456.48	7258.00
456.68	7100.31
456.89	7274.38
457.10	7423.89
457.31	7356.30
457.52	7239.57
457.73	7323.54
457.94	7481.23
458.14	7534.48
458.35	7573.39
458.56	7503.76
458.77	7542.67
458.98	7726.99
459.19	7700.36
459.39	7739.27
459.60	8019.85
459.81	7716.75
460.02	7839.62
460.23	7856.01
460.44	8175.49
460.65	8042.37
460.85	8013.70
461.06	8069.00
461.27	7899.02
461.48	8261.51
461.69	8359.81
461.89	8081.28
462.10	8122.24
462.31	8193.92
462.52	8187.78
462.73	8488.83
462.94	8437.63
463.14	8505.21
463.35	8458.11
463.56	8806.27
463.77	8703.87
463.98	8531.84
464.18	8417.15
464.39	8769.40
464.60	8953.72
464.81	8865.66
465.02	8859.51
465.23	9105.27
465.43	8830.84
465.64	9154.42
465.85	9064.31
466.06	8994.68
466.27	9170.80
466.47	9408.37
466.68	9275.25
466.89	9342.83
467.10	9432.94
467.30	9273.20
467.51	9387.89
467.72	9627.50
467.93	9314.16
468.14	9533.29
468.34	9594.73
468.55	9766.76
468.76	9650.03
468.97	9807.72
469.17	9856.87
469.38	9865.07
469.59	10098.53
469.80	9983.85
470.01	10026.86
470.21	10057.57
470.42	10272.61
470.63	10276.71
470.84	10143.59
471.04	10297.19
471.25	10303.33
471.46	10393.44
471.67	10721.12
471.87	10727.26
472.08	10661.73
472.29	10876.76
472.50	10501.98
472.70	10745.69
472.91	10837.85
473.12	11028.31
473.33	11106.13
473.53	11145.05
473.74	10913.63
473.95	11456.34
474.16	11384.66
474.36	11329.36
474.57	11331.41
474.78	11755.34
474.99	11355.99
475.19	11458.39
475.40	11949.90
475.61	11648.85
475.81	12003.14
476.02	12259.14
476.23	11923.27
476.44	12273.48
476.64	12330.82
476.85	12601.15
477.06	12482.37
477.27	12568.38
477.47	12746.56
477.68	12687.17
477.89	12846.91
478.09	12713.79
478.30	12973.88
478.51	13039.42
478.71	13066.04
478.92	13262.65
479.13	13270.84
479.34	13346.61
479.54	13410.10
479.75	13567.79
479.96	13518.64
480.16	13414.20
480.37	13770.54
480.58	13778.73
480.78	13782.83
480.99	13991.72
481.20	14212.90
481.41	14305.06
481.61	14190.38
481.82	14274.34
482.03	14348.07
482.23	14370.60
482.44	14614.30
482.65	14767.90
482.85	14712.61
483.06	14913.31
483.27	14747.42
483.47	14690.08
483.68	14647.07
483.89	15150.87
484.09	15071.00
484.30	15316.76
484.51	15212.31
484.71	15464.21
484.92	15439.64
485.13	15582.99
485.33	15714.06
485.54	15791.89
485.75	16047.88
485.95	15879.95
486.16	15832.85
486.37	16097.03
486.57	16094.99
486.78	16150.28
486.98	16152.33
487.19	16570.12
487.40	16416.52
487.60	16420.61
487.81	16731.90
488.02	16572.16
488.22	16533.25
488.43	16705.28
488.64	16836.35
488.84	16914.17
489.05	16826.11
489.25	17155.83
489.46	17245.94
489.67	17063.68
489.87	17352.44
490.08	17364.73
490.29	17434.36
490.49	17768.18
490.70	17635.06
490.90	17952.49
491.11	17759.98
491.32	17778.42
491.52	18056.94
491.73	17882.86
491.94	18159.34
492.14	18181.87
492.35	18130.67
492.55	18233.07
492.76	18626.28
492.97	18677.48
493.17	18249.45
493.38	18429.67
493.58	18687.71
493.79	18765.54
494.00	18743.01
494.20	18788.07
494.41	19113.69
494.61	19097.31
494.82	19136.22
495.02	19216.09
495.23	19160.80
495.44	19353.30
495.64	19255.00
495.85	19257.05
496.05	19517.14
496.26	19349.21
496.47	19869.39
496.67	19664.60
496.88	19771.09
497.08	19945.17
497.29	20207.31
497.49	19834.58
497.70	20295.37
497.91	20180.68
498.11	20426.44
498.32	20285.13
498.52	20371.15
498.73	20786.88
498.93	20569.80
499.14	20829.89
499.34	20631.24
499.55	20637.38
499.76	20690.63
499.96	20891.33
500.17	20752.07
500.37	20989.63
500.58	20903.62
500.78	21092.03
500.99	20942.53
501.19	21345.98
501.40	21171.90
501.60	21184.19
501.81	21188.28
502.02	21536.44
502.22	21182.14
502.43	21477.05
502.63	21722.80
502.84	21544.63
503.04	21677.75
503.25	21806.77
503.45	21626.55
503.66	21882.55
503.86	21489.34
504.07	22261.42
504.27	21907.12
504.48	22038.19
504.68	22048.43
504.89	22296.24
505.09	22314.67
505.30	22298.28
505.50	22220.46
505.71	22316.72
505.91	22271.66
506.12	22335.15
506.32	22711.97
506.53	22691.49
506.73	22851.24
506.94	22800.04
507.14	22668.97
507.35	22681.25
507.55	22802.08
507.76	22695.59
507.96	22734.50
508.17	23072.42
508.37	23096.99
508.58	22994.59
508.78	22797.99
508.99	23072.42
509.19	23185.05
509.40	23238.30
509.60	22898.34
509.81	23488.15
510.01	22994.59
510.22	23533.21
510.42	23377.56
510.63	23508.63
510.83	23508.63
511.04	23606.94
511.24	23688.85
511.44	23738.01
511.65	23535.26
511.85	23735.96
512.06	23684.76
512.26	23705.24
512.47	23994.00
512.67	23838.36
512.88	23850.64
513.08	23920.28
513.29	23977.62
513.49	23983.76
513.69	23946.90
513.90	24075.92
514.10	24276.62
514.31	24139.41
514.51	24360.59
514.72	23912.08
514.92	24051.34
515.13	24512.14
515.33	24239.76
515.53	24608.39
515.74	24315.53
515.94	24632.97
516.15	24329.87
516.35	24356.49
516.56	24663.69
516.76	24585.86
516.96	24551.05
517.17	24770.18
517.37	24782.47
517.58	24680.07
517.78	25052.80
517.99	24665.74
518.19	24850.05
518.39	25083.52
518.60	25056.90
518.80	25099.90
519.01	25163.39
519.21	25128.58
519.41	25269.89
519.62	24837.76
519.82	25335.42
520.03	25548.41
520.23	25341.57
520.43	25355.90
520.64	25609.85
520.84	25814.65
521.05	25769.59
521.25	25751.16
521.45	25910.90
521.66	26076.79
521.86	25607.80
522.07	25689.72
522.27	25771.64
522.47	26027.63
522.68	26220.14
522.88	26076.79
523.08	26005.11
523.29	26087.03
523.49	25951.86
523.70	26549.87
523.90	26658.41
524.10	26181.23
524.31	26879.59
524.51	26320.49
524.71	26668.65
524.92	26500.72
525.12	26762.86
525.33	26816.10
525.53	26957.41
525.73	27190.88
525.94	27115.11
526.14	27049.57
526.34	26705.51
526.55	26857.06
526.75	27100.77
526.95	27117.15
527.16	27293.28
527.36	27205.22
527.56	27459.16
527.77	27510.36
527.97	27344.48
528.17	27346.53
528.38	27819.61
528.58	27678.30
528.78	27801.18
528.99	27493.98
529.19	27879.00
529.39	27700.83
529.60	27969.11
529.80	27756.12
530.00	27997.78
530.21	28114.52
530.41	28528.20
530.61	28272.21
530.82	28104.28
531.02	28216.91
531.22	28231.25
531.43	28446.29
531.63	28558.92
531.83	28597.84
532.04	29007.43
532.24	28724.81
532.44	29128.26
532.64	28915.27
532.85	29279.81
533.05	28890.70
533.25	29027.91
533.46	29013.57
533.66	29713.98
533.86	29298.24
534.07	29529.66
534.27	29451.84
534.47	29494.85
534.67	29529.66
534.88	29525.57
535.08	29550.14
535.28	29484.61
535.49	29804.09
535.69	29974.07
535.89	30051.89
536.09	29980.21
536.30	30080.56
536.50	30146.10
536.70	30189.11
536.91	29992.50
537.11	30244.40
537.31	30455.34
537.51	30502.45
537.72	30692.91
537.92	30570.03
538.12	30752.30
538.32	30527.02
538.53	30664.24
538.73	30533.17
538.93	30907.94
539.13	30805.55
539.34	30803.50
539.54	30754.35
539.74	31133.22
539.94	30930.47
540.15	30776.87
540.35	31217.19
540.55	31231.52
540.75	31125.03
540.96	31252.00
541.16	31385.12
541.36	31114.79
541.56	31401.50
541.77	31686.17
541.97	31125.03
542.17	31551.01
542.37	31778.33
542.58	31415.84
542.78	31499.81
542.98	31299.11
543.18	31585.82
543.38	32009.75
543.59	31858.20
543.79	32089.62
543.99	31948.31
544.19	31882.78
544.40	32017.94
544.60	32228.88
544.80	31884.83
545.00	32192.02
545.20	32202.26
545.41	32056.85
545.61	32171.54
545.81	32284.18
546.01	32591.37
546.21	32411.15
546.42	31899.16
546.62	32538.13
546.82	32429.59
547.02	32654.86
547.22	32163.35
547.43	32634.38
547.63	32253.46
547.83	32665.10
548.03	32405.01
548.23	32798.22
548.44	32769.55
548.64	32914.95
548.84	32964.10
549.04	32661.01
549.24	32761.36
549.45	33025.54
549.65	32800.27
549.85	32718.35
550.05	33314.31
550.25	33029.64
550.45	33369.60
550.66	33062.41
550.86	32996.87
551.06	33027.59
551.26	33175.05
551.46	33439.23
551.66	33306.12
551.87	32894.47
552.07	33433.09
552.27	33078.79
552.47	33103.37
552.67	33146.37
552.87	33293.83
553.07	33041.93
553.28	33146.37
553.48	33347.08
553.68	33302.02
553.88	33261.06
554.08	33271.30
554.28	33414.66
554.48	32953.87
554.69	33613.31
554.89	33066.50
555.09	33863.16
555.29	33506.82
555.49	33488.38
555.69	33764.86
555.89	33598.98
556.10	33850.88
556.30	33418.75
556.50	33824.25
556.70	33525.25
556.90	33738.24
557.10	33902.07
557.30	33664.51
557.50	34004.47
557.70	34127.35
557.91	33928.70
558.11	33990.14
558.31	33938.94
558.51	33961.47
558.71	33865.21
558.91	33947.13
559.11	33820.16
559.31	33768.96
559.51	33918.46
559.72	33746.43
559.92	33854.97
560.12	34059.77
560.32	34498.03
560.52	33613.31
560.72	34172.41
560.92	33949.18
561.12	33889.79
561.32	34188.79
561.52	34090.49
561.72	34182.65
561.93	33943.03
562.13	33981.95
562.33	33820.16
562.53	34366.96
562.73	33871.36
562.93	34061.82
563.13	34227.70
563.33	33945.08
563.53	33912.31
563.73	34061.82
563.93	34188.79
564.13	34293.24
564.33	34342.39
564.53	34170.36
564.74	34340.34
564.94	34315.76
565.14	34166.26
565.34	33988.09
565.54	33979.90
565.74	34272.76
565.94	34917.87
566.14	34295.28
566.34	34297.33
566.54	34842.09
566.74	34076.15
566.94	34129.40
567.14	34467.31
567.34	34323.96
567.54	34715.12
567.74	34309.62
567.94	34221.56
568.14	34395.64
568.34	34524.66
568.54	34309.62
568.74	34729.45
568.94	34401.78
569.14	34500.08
569.34	34588.14
569.54	34622.96
569.75	34391.54
569.95	34209.27
570.15	35063.27
570.35	34807.28
570.55	34184.69
570.75	34391.54
570.95	34422.26
571.15	34379.25
571.35	34639.34
571.55	34774.51
571.75	34438.64
571.95	34741.74
572.15	34645.49
572.35	35233.25
572.55	34573.81
572.75	34741.74
572.95	34739.69
573.15	34567.66
573.35	34770.41
573.55	34727.41
573.75	34674.16
573.95	35141.10
574.15	34547.18
574.35	34745.84
574.55	34731.50
574.75	35030.51
574.95	34958.83
575.15	34780.65
575.34	35227.11
575.54	35188.20
575.74	34964.97
575.94	35311.08
576.14	35026.41
576.34	35075.56
576.54	35198.44
576.74	35286.50
576.94	35012.07
577.14	35309.03
577.34	35644.90
577.54	35139.05
577.74	35038.70
577.94	35329.51
578.14	35458.53
578.34	35507.68
578.54	35059.18
578.74	35276.26
578.94	35726.81
579.14	35126.76
579.34	35433.96
579.54	35196.39
579.74	35542.50
579.94	35050.99
580.13	35337.70
580.33	35266.02
580.53	35786.21
580.73	35388.90
580.93	35530.21
581.13	35302.89
581.33	35585.50
581.53	35782.11
581.73	35388.90
581.93	35735.01
582.13	35745.25
582.33	35534.31
582.53	35792.35
582.73	35827.17
582.92	35782.11
583.12	35710.43
583.32	35929.56
583.52	35562.98
583.72	36062.68
583.92	35689.95
584.12	35993.05
584.32	36443.60
584.52	35775.97
584.72	35771.87
584.92	36449.75
585.11	36560.34
585.31	35997.15
585.51	36027.87
585.71	35659.23
585.91	36296.15
586.11	35849.69
586.31	35665.38
586.51	35898.84
586.71	36056.54
586.91	36079.07
587.10	36355.54
587.30	36285.91
587.50	36214.23
587.70	36197.85
587.90	36099.55
588.10	36044.25
588.30	36414.93
588.50	36384.21
588.69	36156.89
588.89	36070.87
589.09	36267.48
589.29	36345.30
589.49	36832.72
589.69	36318.68
589.89	36619.73
590.08	36343.25
590.28	36361.69
590.48	36316.63
590.68	36070.87
590.88	36212.18
591.08	36412.88
591.28	36441.56
591.47	36611.54
591.67	36654.54
591.87	36777.42
592.07	36703.70
592.27	36613.59
592.47	36638.16
592.67	36660.69
592.86	36376.02
593.06	36384.21
593.26	36615.63
593.46	36781.52
593.66	36535.76
593.86	36609.49
594.05	36623.83
594.25	36617.68
594.45	36400.60
594.65	36345.30
594.85	36603.35
595.05	36658.64
595.24	36992.46
595.44	36861.39
595.64	37117.39
595.84	36992.46
596.04	36902.35
596.23	36474.32
596.43	36693.46
596.63	36613.59
596.83	36802.00
597.03	37025.23
597.22	37238.22
597.42	36791.76
597.62	37088.71
597.82	37150.15
598.02	36816.33
598.21	36912.59
598.41	36931.02
598.61	37103.05
598.81	36816.33
599.01	37195.21
599.20	36879.82
599.40	36767.18
599.60	37152.20
599.80	36892.11
600.00	37252.55
600.19	37113.29
600.39	37088.71
600.59	37197.26
600.79	37049.80
600.98	37324.23
601.18	37395.91
601.38	37608.90
601.58	37656.00
601.78	37602.75
601.97	37371.33
602.17	37297.61
602.37	37457.35
602.57	37656.00
602.76	37815.74
602.96	37453.25
603.16	37277.13
603.36	37668.29
603.55	37662.15
603.75	37309.89
603.95	37770.69
604.15	37670.34
604.34	37373.38
604.54	37238.22
604.74	37418.44
604.94	37631.43
605.13	37703.10
605.33	37328.33
605.53	37901.76
605.73	37819.84
605.92	37975.48
606.12	37836.22
606.32	37711.30
606.52	37522.88
606.71	37725.63
606.91	37963.20
607.11	37676.48
607.30	38092.22
607.50	37848.51
607.70	37995.96
607.90	37973.44
608.09	38008.25
608.29	37594.56
608.49	37940.67
608.68	38051.26
608.88	38012.35
609.08	37766.59
609.28	38000.06
609.47	37723.58
609.67	38159.80
609.87	37602.75
610.06	37750.21
610.26	37799.36
610.46	37989.82
610.66	38184.38
610.85	37764.54
611.05	37739.97
611.25	37559.75
611.44	37680.58
611.64	38036.92
611.84	37586.37
612.03	37877.18
612.23	38063.55
612.43	37946.81
612.62	37522.88
612.82	37785.02
613.02	37795.26
613.21	38165.95
613.41	37787.07
613.61	38237.62
613.80	37514.69
614.00	37836.22
614.20	38120.89
614.39	37981.63
614.59	37844.41
614.79	37576.13
614.98	37817.79
615.18	37836.22
615.38	37739.97
615.57	37359.05
615.77	37250.50
615.97	37676.48
616.16	37998.01
616.36	37498.31
616.56	37795.26
616.75	38167.99
616.95	37510.60
617.15	37787.07
617.34	37596.61
617.54	37256.65
617.74	37647.81
617.93	37451.20
618.13	37268.94
618.32	37479.88
618.52	37430.72
618.72	37774.78
618.91	37660.10
619.11	37445.06
619.31	37580.23
619.50	37275.08
619.70	37492.16
619.90	37653.95
620.09	37416.39
620.29	37703.10
620.48	37283.27
620.68	37477.83
620.88	37197.26
621.07	37041.61
621.27	37113.29
621.46	37070.28
621.66	37287.37
621.86	37397.96
622.05	37213.64
622.25	37158.34
622.44	36672.98
622.64	37381.57
622.84	37418.44
623.03	36994.51
623.23	37264.84
623.42	37027.28
623.62	36990.41
623.82	37201.35
624.01	37119.43
624.21	37090.76
624.40	36976.08
624.60	36879.82
624.80	36767.18
624.99	36732.37
625.19	36787.66
625.38	36898.25
625.58	36922.83
625.77	36890.06
625.97	36750.80
626.17	36623.83
626.36	36869.58
626.56	36863.44
626.75	36634.06
626.95	37090.76
627.14	36705.74
627.34	37004.75
627.54	36677.07
627.73	36967.88
627.93	36629.97
628.12	36660.69
628.32	36869.58
628.51	36851.15
628.71	36861.39
628.90	36517.33
629.10	36543.95
629.30	36773.33
629.49	36539.86
629.69	36494.80
629.88	36582.87
630.08	36482.52
630.27	36556.24
630.47	36472.28
630.66	36474.32
630.86	36601.30
631.05	36232.66
631.25	36574.67
631.44	36382.16
631.64	36470.23
631.84	36527.57
632.03	36773.33
632.23	36220.38
632.42	36851.15
632.62	36214.23
632.81	36339.16
633.01	36412.88
633.20	36568.53
633.40	36355.54
633.59	36359.64
633.79	36416.98
633.98	36195.80
634.18	36623.83
634.37	36261.33
634.57	36132.31
634.76	36365.78
634.96	36384.21
635.15	36726.22
635.35	36173.27
635.54	36011.48
635.74	36281.81
635.93	35943.90
636.13	36163.03
636.32	35997.15
636.52	35984.86
636.71	36181.46
636.91	36070.87
637.10	36203.99
637.30	35966.43
637.49	36048.35
637.69	35780.06
637.88	36404.69
638.08	36267.48
638.27	36169.18
638.46	35857.88
638.66	36359.64
638.85	35954.14
639.05	36259.29
639.24	36226.52
639.44	36111.83
639.63	35775.97
639.83	35718.62
640.02	35855.84
640.22	36031.96
640.41	36277.72
640.61	35780.06
640.80	36144.60
640.99	35904.99
641.19	36136.41
641.38	36087.26
641.58	36353.49
641.77	35970.52
641.97	35845.60
642.16	36072.92
642.36	35853.79
642.55	35952.09
642.74	35892.70
642.94	36271.57
643.13	35821.02
643.33	35868.12
643.52	35993.05
643.72	36314.58
643.91	35888.60
644.10	35816.93
644.30	36013.53
644.49	35956.19
644.69	36406.74
644.88	35714.53
645.08	35968.48
645.27	35923.42
645.46	35739.10
645.66	35896.80
645.85	35644.90
646.05	35890.65
646.24	36103.64
646.43	35661.28
646.63	35978.72
646.82	35870.17
647.02	36095.45
647.21	35804.64
647.40	35857.88
647.60	35882.46
647.79	35669.47
647.99	35614.18
648.18	35466.72
648.37	36034.01
648.57	36001.24
648.76	35943.90
648.96	35642.85
649.15	35773.92
649.34	35925.47
649.54	35757.53
649.73	35542.50
649.92	35919.32
650.12	35982.81
650.31	35876.32
650.51	35661.28
650.70	35923.42
650.89	35796.45
651.09	36251.09
651.28	35911.13
651.47	35855.84
651.67	35436.00
651.86	35667.42
652.06	35562.98
652.25	35587.55
652.44	35556.83
652.64	35886.56
652.83	35632.61
653.02	35571.17
653.22	35698.14
653.41	35227.11
653.60	35300.84
653.80	35612.13
653.99	35704.29
654.18	35548.64
654.38	35642.85
654.57	35280.36
654.76	35821.02
654.96	35587.55
655.15	35501.54
655.34	35403.24
655.54	35567.07
655.73	35603.94
655.92	35591.65
656.12	35689.95
656.31	35440.10
656.50	35288.55
656.70	35511.78
656.89	35354.08
657.08	35438.05
657.28	35505.63
657.47	35417.57
657.66	35653.09
657.86	35433.96
658.05	35345.89
658.24	35501.54
658.43	35124.71
658.63	35589.60
658.82	35409.38
659.01	35513.83
659.21	35085.80
659.40	35292.65
659.59	35585.50
659.79	35354.08
659.98	35149.29
660.17	35452.39
660.36	35403.24
660.56	35247.59
660.75	35005.93
660.94	35014.12
661.14	35114.47
661.33	35096.04
661.52	34811.37
661.71	35374.56
661.91	34868.72
662.10	34964.97
662.29	35173.86
662.49	34975.21
662.68	34766.32
662.87	35309.03
663.06	35177.96
663.26	35024.36
663.45	35218.92
663.64	35030.51
663.83	34848.24
664.03	35112.42
664.22	34629.10
664.41	35253.73
664.60	34823.66
664.80	35087.85
664.99	34708.97
665.18	35005.93
665.37	35030.51
665.57	35044.84
665.76	34455.03
665.95	34975.21
666.14	34891.24
666.34	34899.44
666.53	35175.91
666.72	34301.43
666.91	34768.37
667.11	34586.10
667.30	34835.95
667.49	34512.37
667.68	34958.83
667.87	34831.85
668.07	34788.85
668.26	34633.20
668.45	34582.00
668.64	34579.95
668.84	34895.34
669.03	34618.86
669.22	34268.66
669.41	34270.71
669.60	34582.00
669.80	34420.21
669.99	34670.06
670.18	34502.13
670.37	34538.99
670.57	34754.03
670.76	34164.21
670.95	34379.25
671.14	34432.50
671.33	34018.81
671.53	34219.51
671.72	34131.45
671.91	34006.52
672.10	33873.40
672.29	34170.36
672.48	34371.06
672.68	34381.30
672.87	34051.58
673.06	33920.51
673.25	33816.06
673.44	34311.67
673.64	34020.86
673.83	34016.76
674.02	33828.35
674.21	33934.84
674.40	34231.80
674.59	33850.88
674.79	34010.62
674.98	34278.90
675.17	33996.28
675.36	33728.00
675.55	33848.83
675.74	33732.09
675.94	33969.66
676.13	33576.45
676.32	34100.73
676.51	33973.75
676.70	33900.03
676.89	33986.04
677.08	34489.84
677.28	33486.34
677.47	34248.18
677.66	33940.99
677.85	33672.70
678.04	33869.31
678.23	33916.41
678.42	33990.14
678.62	33555.97
678.81	33504.77
679.00	33435.14
679.19	33928.70
679.38	33428.99
679.57	33508.86
679.76	33730.05
679.96	33551.87
680.15	33433.09
680.34	33371.65
680.53	33590.78
680.72	33519.10
680.91	33539.58
681.10	33369.60
681.29	33324.55
681.48	33539.58
681.68	33154.57
681.87	33670.65
682.06	33420.80
682.25	33041.93
682.44	33222.15
682.63	33129.99
682.82	32982.54
683.01	32841.23
683.20	32923.15
683.39	32837.13
683.59	33263.11
683.78	32792.08
683.97	32767.50
684.16	33052.17
684.35	32681.49
684.54	32673.29
684.73	32632.33
684.92	32808.46
685.11	32894.47
685.30	32554.51
685.49	32947.72
685.69	32683.53
685.88	32695.82
686.07	32519.70
686.26	32622.09
686.45	32437.78
686.64	32734.73
686.83	32663.05
687.02	32853.51
687.21	32630.29
687.40	32509.46
687.59	32699.92
687.78	32222.74
687.97	32650.77
688.16	32646.67
688.35	31858.20
688.54	32335.38
688.74	32273.94
688.93	32130.58
689.12	32335.38
689.31	32478.74
689.50	32235.03
689.69	32120.34
689.88	31716.89
690.07	32376.34
690.26	32405.01
690.45	32384.53
690.64	31901.21
690.83	32124.44
691.02	32222.74
691.21	31780.38
691.40	32056.85
691.59	32056.85
691.78	31708.70
691.97	31827.48
692.16	31780.38
692.35	32165.40
692.54	32149.01
692.73	31921.69
692.92	31548.96
693.11	31858.20
693.30	31825.43
693.49	31546.91
693.68	31194.66
693.87	31440.42
694.06	31460.90
694.25	31546.91
694.44	31180.32
694.63	31274.53
694.82	31483.42
695.01	31344.16
695.20	31157.80
695.39	31540.77
695.58	31567.39
695.77	31286.82
695.96	30975.53
696.15	31223.33
696.34	30907.94
696.53	30975.53
696.72	31073.83
696.91	31039.01
697.10	31135.27
697.29	30864.94
697.48	31305.25
697.67	30965.29
697.86	31016.49
698.05	30899.75
698.24	31133.22
698.43	30629.42
698.62	30807.59
698.81	30332.47
699.00	30764.59
699.19	30873.13
699.38	30594.61
699.57	30561.84
699.76	30727.72
699.95	30543.41
700.14	30643.76
700.32	30502.45
700.51	30699.05
700.70	30721.58
700.89	30273.07
701.08	30733.87
701.27	30559.79
701.46	30838.31
701.65	30187.06
701.84	30668.33
702.03	30625.32
702.22	30332.47
702.41	30281.27
702.60	29830.71
702.79	30178.87
702.98	29926.97
703.17	30393.90
703.35	30142.00
703.54	30217.78
703.73	30248.50
703.92	30074.42
704.11	30189.11
704.30	29707.83
704.49	30213.68
704.68	29632.06
704.87	29976.12
705.06	29845.05
705.25	29822.52
705.43	30066.23
705.62	29912.63
705.81	29607.48
706.00	29578.81
706.19	29533.76
706.38	29470.27
706.57	29439.55
706.76	29554.24
706.95	29601.34
707.14	29298.24
707.32	29417.02
707.51	29423.17
707.70	29433.41
707.89	29607.48
708.08	29208.13
708.27	29406.78
708.46	29478.46
708.65	29212.23
708.84	29183.55
709.02	28849.74
709.21	29242.95
709.40	29142.60
709.59	29310.53
709.78	28558.92
709.97	29011.53
710.16	28907.08
710.34	28696.14
710.53	28644.94
710.72	28698.19
710.91	28966.47
711.10	28870.22
711.29	28925.51
711.48	28735.05
711.66	28855.88
711.85	28700.23
712.04	28784.20
712.23	28458.57
712.42	28345.94
712.61	28683.85
712.80	28446.29
712.98	28440.14
713.17	28493.39
713.36	28327.50
713.55	28282.45
713.74	28352.08
713.93	28423.76
714.11	28360.27
714.30	28565.07
714.49	28214.87
714.68	28341.84
714.87	28352.08
715.06	28286.54
715.24	28474.96
715.43	27778.65
715.62	27801.18
715.81	27854.42
716.00	28278.35
716.18	27887.19
716.37	27776.60
716.56	27971.16
716.75	28081.75
716.94	27620.95
717.12	27518.56
717.31	28069.46
717.50	27641.43
717.69	27639.39
717.88	27721.30
718.06	27774.55
718.25	27729.50
718.44	27373.15
718.63	27670.11
718.82	27442.78
719.00	27547.23
719.19	27498.08
719.38	27125.35
719.57	26875.49
719.76	27188.83
719.94	27342.43
720.13	27307.62
720.32	27280.99
720.51	27172.45
720.69	26900.07
720.88	27256.42
721.07	26883.69
721.26	26752.62
721.44	26914.41
721.63	26848.87
721.82	26594.92
722.01	26617.45
722.20	26947.17
722.38	26629.74
722.57	26599.02
722.76	26580.59
722.95	26590.83
723.13	26549.87
723.32	26216.05
723.51	26091.12
723.70	26267.25
723.88	26502.76
724.07	26254.96
724.26	26334.83
724.44	26078.83
724.63	25998.96
724.82	26367.60
725.01	26072.69
725.19	26363.50
725.38	26021.49
725.57	26039.92
725.76	26246.77
725.94	25798.26
726.13	25800.31
726.32	25613.95
726.51	25900.66
726.69	26130.03
726.88	26134.13
727.07	26046.07
727.25	26189.42
727.44	25949.81
727.63	25480.83
727.82	25859.70
728.00	25728.63
728.19	25790.07
728.38	25779.83
728.56	25570.94
728.75	25484.92
728.94	25749.11
729.12	25622.14
729.31	25654.90
729.50	25755.26
729.69	25646.71
729.87	25849.46
730.06	25441.92
730.25	25519.74
730.43	25489.02
730.62	25403.00
730.81	25566.84
730.99	25558.65
731.18	25321.09
731.37	25327.23
731.55	25441.92
731.74	25263.74
731.93	25470.59
732.11	25472.64
732.30	25333.37
732.49	25099.90
732.67	25421.44
732.86	25329.28
733.05	25134.72
733.23	24737.41
733.42	25304.70
733.61	24964.74
733.79	25278.08
733.98	25044.61
734.17	25159.30
734.35	24979.07
734.54	25132.67
734.73	25282.17
734.91	24649.35
735.10	24813.19
735.29	25247.36
735.47	24622.73
735.66	24802.95
735.84	24798.85
736.03	24772.23
736.22	24964.74
736.40	24954.50
736.59	24895.11
736.78	24565.39
736.96	24450.70
737.15	24706.70
737.33	24338.06
737.52	24907.40
737.71	24163.98
737.89	24809.09
738.08	24379.02
738.27	24225.42
738.45	24923.78
738.64	24612.49
738.82	24448.65
739.01	24540.81
739.20	24170.13
739.38	24553.10
739.57	24376.97
739.75	24272.53
739.94	24245.90
740.13	24424.08
740.31	23785.11
740.50	24315.53
740.68	23953.04
740.87	24262.29
741.06	24514.19
741.24	24080.02
741.43	23852.69
741.61	24276.62
741.80	24133.26
741.99	24299.15
742.17	23901.84
742.36	24368.78
742.54	24041.11
742.73	23680.66
742.91	23883.41
743.10	23991.95
743.29	23762.58
743.47	24069.78
743.66	23971.47
743.84	24098.45
744.03	23574.17
744.21	23850.64
744.40	24006.29
744.59	23639.70
744.77	23881.36
744.96	24069.78
745.14	23606.94
745.33	23688.85
745.51	23629.46
745.70	23580.31
745.88	23676.57
746.07	23449.24
746.26	23451.29
746.44	23559.83
746.63	23289.50
746.81	23383.71
747.00	23295.64
747.18	23697.05
747.37	23279.26
747.55	23393.95
747.74	23799.44
747.92	23318.17
748.11	23533.21
748.29	23428.76
748.48	23250.59
748.66	23121.57
748.85	23326.36
749.03	23215.77
749.22	23291.55
749.41	23062.18
749.59	23389.85
749.78	23066.27
749.96	22886.05
750.15	23187.10
750.33	22924.96
750.52	22765.22
750.70	22900.39
750.89	22656.68
751.07	22836.90
751.26	23088.80
751.44	22677.16
751.63	23008.93
751.81	22451.88
752.00	22662.82
752.18	22914.72
752.37	22480.55
752.55	22781.60
752.74	22410.92
752.92	22812.32
753.10	22544.04
753.29	22591.14
753.47	22529.70
753.66	22460.07
753.84	22591.14
754.03	22623.91
754.21	22333.10
754.40	22589.10
754.58	22367.91
754.77	22380.20
754.95	22222.51
755.14	22103.73
755.32	22093.49
755.51	22179.50
755.69	22034.10
755.88	21954.22
756.06	22099.63
756.24	22171.31
756.43	22193.84
756.61	22142.64
756.80	22111.92
756.98	21882.55
757.17	22220.46
757.35	22044.34
757.54	22056.62
757.72	21999.28
757.90	21792.44
758.09	21757.62
758.27	21894.83
758.46	21753.52
758.64	21823.16
758.83	21839.54
759.01	22052.53
759.19	21657.27
759.38	21892.79
759.56	21970.61
759.75	21581.49
759.93	21886.64
760.12	21798.58
760.30	21606.07
760.48	21798.58
760.67	21558.97
760.85	21962.42
761.04	21587.64
761.22	21819.06
761.40	21515.96
761.59	21601.97
761.77	21634.74
761.96	21765.81
762.14	21479.10
762.32	21345.98
762.51	21098.17
762.69	21563.06
762.88	21448.38
763.06	21339.83
763.24	21382.84
763.43	21493.43
763.61	21331.64
763.80	21325.50
763.98	21184.19
764.16	21241.53
764.35	20911.81
764.53	20936.38
764.72	21081.79
764.90	21038.78
765.08	20954.82
765.27	21042.88
765.45	20784.83
765.63	20807.36
765.82	20887.23
766.00	20823.75
766.18	20604.61
766.37	20641.48
766.55	20473.54
766.74	20797.12
766.92	20590.28
767.10	20504.26
767.29	20481.74
767.47	20539.08
767.65	20666.05
767.84	20518.60
768.02	20707.01
768.20	20057.81
768.39	20516.55
768.57	20403.91
768.75	20305.61
768.94	20405.96
769.12	20338.38
769.30	20098.77
769.49	19998.41
769.67	20334.28
769.85	20344.52
770.04	20209.36
770.22	19834.58
770.40	20002.51
770.59	20063.95
770.77	20143.82
770.95	19893.97
771.14	20008.65
771.32	19756.75
771.50	19633.88
771.69	20154.06
771.87	20303.56
772.05	20061.90
772.24	19523.29
772.42	20039.37
772.60	19779.28
772.78	19822.29
772.97	19709.65
773.15	20016.85
773.33	19734.23
773.52	19910.35
773.70	19754.71
773.88	19889.87
774.07	19871.44
774.25	19734.23
774.43	19869.39
774.61	19867.34
774.80	19904.21
774.98	19715.80
775.16	19992.27
775.34	19740.37
775.53	19529.43
775.71	19853.01
775.89	19883.73
776.08	19742.42
776.26	19783.38
776.44	19560.15
776.62	19629.78
776.81	19689.17
776.99	19781.33
777.17	19744.47
777.35	19853.01
777.54	19883.73
777.72	19701.46
777.90	19726.04
778.08	19801.81
778.27	19799.76
778.45	19834.58
778.63	19783.38
778.81	19902.16
779.00	20022.99
779.18	19709.65
779.36	20190.92
779.54	19531.48
779.73	19748.56
779.91	20127.44
780.09	19783.38
780.27	20035.28
780.46	20039.37
780.64	20260.55
780.82	19633.88
781.00	20029.13
781.19	20090.57
781.37	20043.47
781.55	19850.96
781.73	20076.24
781.91	19762.90
782.10	19984.08
782.28	19941.07
782.46	19717.84
782.64	19842.77
782.82	20096.72
783.01	19738.32
783.19	20080.33
783.37	19494.61
783.55	19613.40
783.74	19939.02
783.92	19801.81
784.10	20115.15
784.28	19463.90
784.46	19711.70
784.64	19859.15
784.83	19904.21
785.01	19830.48
785.19	19912.40
785.37	19959.50
785.55	19803.86
785.74	19717.84
785.92	19506.90
786.10	19697.36
786.28	19615.44
786.46	19728.08
786.64	19478.23
786.83	19607.25
787.01	19623.64
787.19	19578.58
787.37	19261.15
787.55	19588.82
787.74	19652.31
787.92	19549.91
788.10	19353.30
788.28	19220.19
788.46	19447.51
788.64	19513.05
788.82	19508.95
789.01	19445.46
789.19	19136.22
789.37	19218.14
789.55	19322.59
789.73	19099.36
789.91	19238.62
790.09	19291.87
790.28	19027.68
790.46	19050.21
790.64	19386.07
790.82	18876.13
791.00	19021.53
791.18	19066.59
791.36	18831.07
791.55	18974.43
791.73	18706.15
791.91	18912.99
792.09	18845.41
792.27	18654.95
792.45	18824.93
792.63	18865.89
792.81	18820.83
793.00	18702.05
793.18	18583.27
793.36	18550.50
793.54	18386.66
793.72	18732.77
793.90	18263.79
794.08	18558.69
794.26	18351.85
794.44	18511.59
794.62	18446.05
794.81	18366.18
794.99	18056.94
795.17	18214.63
795.35	18122.48
795.53	18210.54
795.71	18179.82
795.89	17981.17
796.07	18005.74
796.25	17936.11
796.43	17942.25
796.61	18075.37
796.80	17657.59
796.98	17958.64
797.16	17528.56
797.34	17805.04
797.52	17651.44
797.70	17819.38
797.88	17698.55
798.06	17454.84
798.24	17602.29
798.42	17297.14
798.60	17518.32
798.78	17614.58
798.96	17426.17
799.14	17489.65
799.32	17198.84
799.51	17245.94
799.69	17231.61
799.87	17278.71
800.05	17348.34
800.23	17022.72
800.41	17067.77
800.59	16928.51
800.77	16981.76
800.95	17026.81
801.13	16973.56
801.31	16865.02
801.49	17133.31
801.67	16989.95
801.85	16957.18
802.03	16711.42
802.21	16715.52
802.39	16545.54
802.57	16791.30
802.75	16242.44
802.93	16535.30
803.11	16504.58
803.29	16381.70
803.47	16326.41
803.65	16318.22
803.83	16359.17
804.01	16437.00
804.19	16086.79
804.37	16109.32
804.55	15972.11
804.73	16074.51
804.91	16109.32
805.09	16154.38
805.27	15777.55
805.45	16074.51
805.63	15988.49
805.81	15947.53
805.99	16033.55
806.17	15847.18
806.35	15933.20
806.53	15927.05
806.71	15863.57
806.89	15828.75
807.07	15623.95
807.25	15873.81
807.43	15671.06
807.61	15779.60
807.79	15632.15
807.97	15370.01
808.15	15490.84
808.33	15267.61
808.51	15324.95
808.69	15390.49
808.87	15216.41
809.05	15394.58
809.23	15165.21
809.41	15173.40
809.59	15181.59
809.77	15068.95
809.95	14987.04
810.13	15324.95
810.31	14956.32
810.49	15118.11
810.67	15050.52
810.84	14911.26
811.02	14919.45
811.20	14886.68
811.38	15118.11
811.56	14935.84
811.74	14884.64
811.92	14999.32
812.10	14870.30
812.28	14872.35
812.46	14634.78
812.64	14800.67
812.82	14606.11
813.00	14741.28
813.18	14649.12
813.36	14737.18
813.53	14548.77
813.71	14749.47
813.89	14589.73
814.07	14618.40
814.25	14456.61
814.43	14468.90
814.61	14327.59
814.79	14481.19
814.97	14325.54
815.15	14473.00
815.33	14419.75
815.50	14229.29
815.68	14444.32
815.86	14292.77
816.04	14137.13
816.22	14182.18
816.40	14223.14
816.58	14001.96
816.76	13881.13
816.94	14069.55
817.11	14096.17
817.29	13883.18
817.47	14008.11
817.65	13811.50
817.83	14004.01
818.01	13844.27
818.19	13756.21
818.37	13717.29
818.54	13715.25
818.72	13414.20
818.90	13745.97
819.08	13692.72
819.26	13793.07
819.44	13625.14
819.62	13717.29
819.80	13449.01
819.97	13698.86
820.15	13422.39
820.33	13532.98
820.51	13469.49
820.69	13246.26
820.87	13428.53
821.05	13422.39
821.22	13444.91
821.40	13428.53
821.58	13483.83
821.76	13195.06
821.94	13299.51
822.12	13279.03
822.29	13147.96
822.47	13080.38
822.65	13088.57
822.83	13020.99
823.01	13207.35
823.19	13000.51
823.36	13090.62
823.54	12939.07
823.72	12934.97
823.90	13012.79
824.08	12941.11
824.25	13035.32
824.43	12894.01
824.61	13035.32
824.79	13166.39
824.97	12840.76
825.15	12803.90
825.32	12896.06
825.50	12812.09
825.68	13037.37
825.86	12918.59
826.04	12984.12
826.21	12857.15
826.39	12951.35
826.57	12801.85
826.75	12482.37
826.93	12463.94
827.10	12482.37
827.28	12715.84
827.46	12674.88
827.64	12611.39
827.81	12726.08
827.99	12476.23
828.17	12613.44
828.35	12504.90
828.53	12482.37
828.70	12500.80
828.88	12599.10
829.06	12404.55
829.24	12437.31
829.41	12525.38
829.59	12533.57
829.77	12472.13
829.95	12214.09
830.12	12420.93
830.30	12199.75
830.48	12382.02
830.66	12283.72
830.84	12248.90
831.01	12199.75
831.19	12433.22
831.37	12037.96
831.55	12183.37
831.72	12379.97
831.90	12017.48
832.08	12087.11
832.25	12074.82
832.43	11890.51
832.61	12130.12
832.79	11997.00
832.96	11958.09
833.14	12076.87
833.32	11913.03
833.50	12003.14
833.67	11861.84
833.85	12175.17
834.03	11581.26
834.20	11925.32
834.38	11710.29
834.56	11851.60
834.74	11962.19
834.91	11865.93
835.09	11910.99
835.27	11523.92
835.44	11634.51
835.62	11824.97
835.80	11491.15
835.98	11616.08
836.15	11773.77
836.33	11532.11
836.51	11724.62
836.68	11654.99
836.86	11634.51
837.04	11523.92
837.21	11548.50
837.39	11525.97
837.57	11528.02
837.75	11534.16
837.92	11401.04
838.10	11575.12
838.28	11298.64
838.45	11362.13
838.63	11300.69
838.81	11407.19
838.98	11253.59
839.16	11398.99
839.34	11272.02
839.51	11226.96
839.69	11202.39
839.87	11054.94
840.04	11288.40
840.22	11210.58
840.40	11112.28
840.57	11124.57
840.75	11132.76
840.93	11097.94
841.10	11226.96
841.28	11181.91
841.46	11102.04
841.63	11065.18
841.81	10932.06
841.98	10981.21
842.16	11108.18
842.34	11024.22
842.51	10798.94
842.69	10932.06
842.87	11153.24
843.04	10970.97
843.22	10950.49
843.40	10866.52
843.57	10833.75
843.75	10901.34
843.92	11140.95
844.10	10876.76
844.28	10848.09
844.45	10979.16
844.63	10901.34
844.81	10792.80
844.98	10887.00
845.16	10723.16
845.33	10747.74
845.51	10721.12
845.69	10645.34
845.86	10544.99
846.04	10618.72
846.21	10653.53
846.39	10622.81
846.57	10569.57
846.74	10583.90
846.92	10452.83
847.09	10522.46
847.27	10540.90
847.45	10516.32
847.62	10524.51
847.80	10409.83
847.97	10661.73
848.15	10370.91
848.32	10467.17
848.50	10614.62
848.68	10563.42
848.85	10567.52
849.03	10276.71
849.20	10461.02
849.38	10420.06
849.56	10493.79
849.73	10168.16
849.91	10506.08
850.08	10420.06
850.26	10256.23
850.43	10514.27
850.61	10286.95
850.78	10135.40
850.96	10268.52
851.14	10286.95
851.31	10274.66
851.49	10372.96
851.66	10243.94
851.84	10293.09
852.01	10299.23
852.19	10286.95
852.36	10088.29
852.54	10157.92
852.71	10055.53
852.89	10133.35
853.07	10143.59
853.24	10237.80
853.42	10225.51
853.59	9944.94
853.77	10055.53
853.94	10127.21
854.12	9971.56
854.29	10108.77
854.47	9842.54
854.64	9930.60
854.82	9922.41
854.99	10020.71
855.17	9906.02
855.34	9940.84
855.52	9764.72
855.69	9840.49
855.87	9797.48
856.04	9656.17
856.22	9906.02
856.39	9750.38
856.57	9729.90
856.74	9639.79
856.92	9715.56
857.09	9783.15
857.27	9535.34
857.44	9895.78
857.62	9512.81
857.79	9582.45
857.97	9676.65
858.14	9328.50
858.32	9428.85
858.49	9502.58
858.67	9441.14
858.84	9521.01
859.02	9551.73
859.19	9418.61
859.37	9498.48
859.54	9449.33
859.72	9326.45
859.89	9531.25
860.06	9451.38
860.24	9422.70
860.41	9564.01
860.59	9265.01
860.76	9373.55
860.94	9328.50
861.11	9201.52
861.29	9283.44
861.46	9252.72
861.64	9162.61
861.81	9201.52
861.98	9125.75
862.16	9353.07
862.33	9113.46
862.51	9283.44
862.68	9336.69
862.86	9076.60
863.03	9162.61
863.21	9308.02
863.38	9097.08
863.55	9062.26
863.73	9115.51
863.90	9080.69
864.08	9031.54
864.25	9037.69
864.43	9244.53
864.60	8867.70
864.77	9054.07
864.95	8933.24
865.12	9133.94
865.30	9021.30
865.47	8925.05
865.64	8865.66
865.82	9064.31
865.99	9039.73
866.17	8976.25
866.34	8994.68
866.51	8748.92
866.69	9101.17
866.86	8892.28
867.04	8845.18
867.21	8908.66
867.38	8736.63
867.56	8808.31
867.73	8798.07
867.91	8566.65
868.08	8779.64
868.25	8636.28
868.43	8501.12
868.60	8703.87
868.78	8501.12
868.95	8748.92
869.12	8654.72
869.30	8640.38
869.47	8671.10
869.64	8484.73
869.82	8568.70
869.99	8589.18
870.16	8605.56
870.34	8525.69
870.51	8603.52
870.69	8249.22
870.86	8540.03
871.03	8398.72
871.21	8523.65
871.38	8501.12
871.55	8349.57
871.73	8398.72
871.90	8306.56
872.07	8263.55
872.25	8146.82
872.42	8277.89
872.59	8376.19
872.77	8316.80
872.94	8257.41
873.11	8288.13
873.29	8415.10
873.46	8007.56
873.63	8279.94
873.81	8204.16
873.98	8046.47
874.15	8382.34
874.33	8073.09
874.50	8077.19
874.67	8109.96
874.85	8116.10
875.02	7999.37
875.19	8030.09
875.37	7872.39
875.54	7870.34
875.71	7858.06
875.88	7765.90
876.06	7962.50
876.23	7831.43
876.40	7815.05
876.58	7911.30
876.75	7837.58
876.92	7694.22
877.10	7751.56
877.27	8001.41
877.44	7726.99
877.61	7643.02
877.79	7602.06
877.96	7796.62
878.13	7554.96
878.31	7739.27
878.48	7696.27
878.65	7655.31
878.82	7591.82
879.00	7520.14
879.17	7536.52
879.34	7583.63
879.51	7698.31
879.69	7501.71
879.86	7524.24
880.03	7585.68
880.21	7436.17
880.38	7456.65
880.55	7518.09
880.72	7616.40
880.90	7653.26
881.07	7362.45
881.24	7456.65
881.41	7378.83
881.59	7610.25
881.76	7557.00
881.93	7470.99
882.10	7292.82
882.28	7212.95
882.45	7473.04
882.62	7292.82
882.79	7493.52
882.96	7223.19
883.14	7337.87
883.31	7403.41
883.48	7258.00
883.65	7315.34
883.83	7298.96
884.00	7380.88
884.17	7325.58
884.34	7286.67
884.51	7311.25
884.69	7341.97
884.86	7155.60
885.03	7159.70
885.20	7214.99
885.38	7331.73
885.55	7245.71
885.72	7094.16
885.89	7169.94
886.06	7057.30
886.24	7200.66
886.41	7098.26
886.58	7069.59
886.75	7161.75
886.92	7026.58
887.10	7253.91
887.27	7059.35
887.44	7057.30
887.61	7202.71
887.78	6948.76
887.95	7045.01
888.13	7024.53
888.30	7128.98
888.47	6967.19
888.64	7067.54
888.81	7071.64
888.99	6999.96
889.16	6920.09
889.33	6895.51
889.50	6979.48
889.67	7010.20
889.84	6784.92
890.01	6973.33
890.19	6936.47
890.36	7053.20
890.53	6864.79
890.70	6784.92
890.87	6768.54
891.04	6866.84
891.22	6770.58
891.39	6866.84
891.56	6844.31
891.73	6821.78
891.90	6743.96
892.07	6813.59
892.24	6668.19
892.42	6746.01
892.59	6631.32
892.76	6649.75
892.93	6739.87
893.10	6754.20
893.27	6672.28
893.44	6604.70
893.61	6614.94
893.79	6676.38
893.96	6655.90
894.13	6598.56
894.30	6588.32
894.47	6492.06
894.64	6600.60
894.81	6571.93
894.98	6627.23
895.15	6705.05
895.33	6649.75
895.50	6719.39
895.67	6670.23
895.84	6686.62
896.01	6580.12
896.18	6449.05
896.35	6623.13
896.52	6576.03
896.69	6440.86
896.86	6516.64
897.04	6666.14
897.21	6465.44
897.38	6539.16
897.55	6397.85
897.72	6614.94
897.89	6571.93
898.06	6547.36
898.23	6573.98
898.40	6393.76
898.57	6494.11
898.74	6578.08
898.91	6541.21
899.08	6471.58
899.26	6537.12
899.43	6434.72
899.60	6371.23
899.77	6496.16
899.94	6461.34
900.11	6463.39
900.28	6516.64
900.45	6410.14
900.62	6453.15
900.79	6610.84
900.96	6582.17
901.13	6434.72
901.30	6313.89
901.47	6338.46
901.64	6287.26
901.81	6385.57
901.98	6279.07
902.15	6346.66
902.32	6373.28
902.49	6490.01
902.66	6387.61
902.83	6365.09
903.01	6418.33
903.18	6311.84
903.35	6449.05
903.52	6375.33
903.69	6494.11
903.86	6455.20
904.03	6291.36
904.20	6256.54
904.37	6453.15
904.54	6281.12
904.71	6158.24
904.88	6430.62
905.05	6303.65
905.22	6295.46
905.39	6322.08
905.56	6338.46
905.73	6414.24
905.90	6334.37
906.07	6404.00
906.24	6428.57
906.41	6287.26
906.58	6381.47
906.75	6256.54
906.92	6309.79
907.09	6336.42
907.26	6170.53
907.43	6289.31
907.60	6270.88
907.77	6236.06
907.93	6158.24
908.10	6219.68
908.27	6131.62
908.44	6254.50
908.61	6260.64
908.78	6199.20
908.95	6246.30
909.12	6094.76
909.29	6178.72
909.46	6195.11
909.63	6283.17
909.80	6225.82
909.97	6297.50
910.14	6154.15
910.31	6172.58
910.48	6102.95
910.65	6248.35
910.82	6129.57
910.99	6115.23
911.16	6096.80
911.33	6191.01
911.50	6037.41
911.66	6174.63
911.83	6227.87
912.00	6047.65
912.17	6055.84
912.34	6070.18
912.51	6148.00
912.68	6035.36
912.85	6076.32
913.02	5994.40
913.19	6049.70
913.36	6002.60
913.53	6021.03
913.70	5990.31
913.86	6061.99
914.03	5892.01
914.20	5906.34
914.37	6021.03
914.54	5820.33
914.71	5945.25
914.88	6014.88
915.05	5990.31
915.22	5801.90
915.39	5894.05
915.55	5697.45
915.72	5799.85
915.89	5855.14
916.06	5760.94
916.23	5779.37
916.40	5695.40
916.57	5689.26
916.74	5685.16
916.91	5793.70
917.07	5580.71
917.24	5521.32
917.41	5705.64
917.58	5765.03
917.75	5670.83
917.92	5670.83
918.09	5683.11
918.26	5703.59
918.42	5681.07
918.59	5652.39
918.76	5500.84
918.93	5547.95
919.10	5449.64
919.27	5662.63
919.44	5486.51
919.60	5554.09
919.77	5584.81
919.94	5554.09
920.11	5416.88
920.28	5494.70
920.45	5410.73
920.61	5332.91
920.78	5380.01
920.95	5388.21
921.12	5289.90
921.29	5369.77
921.46	5347.25
921.62	5339.05
921.79	5296.05
921.96	5349.29
922.13	5281.71
922.30	5275.57
922.47	5263.28
922.63	5169.07
922.80	5189.55
922.97	5216.18
923.14	5064.63
923.31	5232.56
923.47	5109.68
923.64	5179.31
923.81	5169.07
923.98	5214.13
924.15	4999.09
924.32	5038.00
924.48	5072.82
924.65	5142.45
924.82	4968.37
924.99	4915.12
925.15	4927.41
925.32	4956.08
925.49	4958.13
925.66	4954.04
925.83	4786.10
925.99	4888.50
926.16	5035.96
926.33	4886.45
926.50	4868.02
926.67	4847.54
926.83	4755.38
927.00	4757.43
927.17	4712.38
927.34	4675.51
927.50	4759.48
927.67	4814.77
927.84	4663.22
928.01	4749.24
928.17	4687.80
928.34	4841.40
928.51	4605.88
928.68	4628.41
928.84	4583.35
929.01	4462.52
929.18	4536.25
929.35	4429.76
929.51	4503.48
929.68	4523.96
929.85	4499.39
930.02	4382.65
930.18	4417.47
930.35	4528.06
930.52	4413.37
930.69	4290.49
930.85	4435.90
931.02	4358.08
931.19	4286.40
931.36	4298.69
931.52	4417.47
931.69	4255.68
931.86	4253.63
932.02	4214.72
932.19	4243.39
932.36	4235.20
932.53	4272.06
932.69	4112.32
932.86	4202.43
933.03	4198.34
933.19	4220.86
933.36	4104.13
933.53	4163.52
933.70	3991.49
933.86	4018.11
934.03	4050.88
934.20	3997.64
934.36	3989.44
934.53	3901.38
934.70	4083.65
934.86	3919.81
935.03	3911.62
935.20	3860.42
935.36	3971.01
935.53	3778.50
935.70	3796.93
935.86	3833.80
936.03	3774.41
936.20	3694.54
936.36	3786.69
936.53	3655.62
936.70	3755.97
936.86	3729.35
937.03	3665.86
937.20	3567.56
937.36	3710.92
937.53	3469.26
937.70	3461.07
937.86	3536.84
938.03	3452.88
938.20	3489.74
938.36	3432.40
938.53	3387.34
938.70	3379.15
938.86	3426.25
939.03	3342.28
939.20	3309.52
939.36	3391.44
939.53	3229.65
939.70	3405.77
939.86	3174.35
940.03	3127.25
940.19	3004.37
940.36	3180.50
940.53	3139.54
940.69	3110.86
940.86	3033.04
941.03	3010.51
941.19	2971.60
941.36	2985.94
941.52	2899.92
941.69	3010.51
941.86	2920.40
942.02	2852.82
942.19	2906.07
942.35	2850.77
942.52	2863.06
942.69	2764.76
942.85	2844.63
943.02	2766.81
943.18	2793.43
943.35	2705.37
943.52	2768.85
943.68	2744.28
943.85	2783.19
944.01	2734.04
944.18	2566.10
944.35	2662.36
944.51	2607.06
944.68	2664.41
944.84	2615.26
945.01	2701.27
945.17	2662.36
945.34	2607.06
945.51	2615.26
945.67	2686.94
945.84	2555.86
946.00	2584.54
946.17	2600.92
946.33	2605.02
946.50	2721.75
946.67	2623.45
946.83	2570.20
947.00	2533.34
947.16	2594.78
947.33	2594.78
947.49	2637.78
947.66	2641.88
947.82	2533.34
947.99	2562.01
948.16	2529.24
948.32	2629.59
948.49	2568.15
948.65	2582.49
948.82	2531.29
948.98	2553.82
949.15	2590.68
949.31	2557.91
949.48	2494.43
949.64	2596.82
949.81	2576.34
949.97	2455.51
950.14	2510.81
950.30	2496.47
950.47	2516.95
950.63	2582.49
950.80	2471.90
950.96	2443.23
951.13	2551.77
951.30	2457.56
951.46	2594.78
951.63	2514.91
951.79	2521.05
951.96	2512.86
952.12	2547.67
952.29	2566.10
952.45	2502.62
952.62	2596.82
952.78	2570.20
952.94	2549.72
953.11	2529.24
953.27	2451.42
953.44	2533.34
953.60	2519.00
953.77	2555.86
953.93	2504.67
954.10	2594.78
954.26	2535.39
954.43	2437.08
954.59	2580.44
954.76	2484.19
954.92	2469.85
955.09	2475.99
955.25	2486.23
955.42	2531.29
955.58	2486.23
955.75	2371.55
955.91	2551.77
956.07	2480.09
956.24	2422.75
956.40	2459.61
956.57	2508.76
956.73	2467.80
956.90	2410.46
957.06	2492.38
957.23	2435.03
957.39	2426.84
957.56	2418.65
957.72	2451.42
957.88	2373.60
958.05	2525.15
958.21	2525.15
958.38	2426.84
958.54	2510.81
958.71	2498.52
958.87	2410.46
959.03	2432.99
959.20	2410.46
959.36	2371.55
959.53	2428.89
959.69	2383.84
959.85	2420.70
960.02	2443.23
960.18	2457.56
960.35	2340.83
960.51	2539.48
960.68	2394.08
960.84	2449.37
961.00	2416.60
961.17	2394.08
961.33	2287.58
961.50	2435.03
961.66	2478.04
961.82	2330.59
961.99	2332.64
962.15	2428.89
962.31	2459.61
962.48	2371.55
962.64	2471.90
962.81	2320.35
962.97	2359.26
963.13	2359.26
963.30	2441.18
963.46	2381.79
963.62	2371.55
963.79	2392.03
963.95	2279.39
964.12	2301.92
964.28	2426.84
964.44	2355.16
964.61	2389.98
964.77	2365.40
964.93	2340.83
965.10	2336.73
965.26	2406.36
965.42	2308.06
965.59	2330.59
965.75	2355.16
965.92	2324.44
966.08	2416.60
966.24	2346.97
966.41	2320.35
966.57	2363.36
966.73	2310.11
966.90	2285.53
967.06	2287.58
967.22	2240.48
967.39	2349.02
967.55	2287.58
967.71	2312.16
967.88	2289.63
968.04	2306.01
968.20	2271.20
968.37	2254.81
968.53	2260.96
968.69	2324.44
968.85	2275.29
969.02	2316.25
969.18	2306.01
969.34	2250.72
969.51	2291.68
969.67	2430.94
969.83	2240.48
970.00	2377.69
970.16	2226.14
970.32	2254.81
970.48	2342.88
970.65	2297.82
970.81	2248.67
970.97	2371.55
971.14	2226.14
971.30	2230.24
971.46	2230.24
971.63	2191.33
971.79	2265.05
971.95	2293.72
972.11	2189.28
972.28	2166.75
972.44	2279.39
972.60	2176.99
972.76	2297.82
972.93	2285.53
973.09	2252.77
973.25	2295.77
973.42	2265.05
973.58	2236.38
973.74	2254.81
973.90	2250.72
974.07	2220.00
974.23	2295.77
974.39	2088.93
974.55	2258.91
974.72	2236.38
974.88	2224.09
975.04	2265.05
975.20	2256.86
975.37	2220.00
975.53	2220.00
975.69	2205.66
975.85	2185.18
976.01	2156.51
976.18	2121.70
976.34	2234.33
976.50	2256.86
976.66	2201.57
976.83	2127.84
976.99	2224.09
977.15	2213.85
977.31	2215.90
977.47	2263.01
977.64	2179.04
977.80	2242.53
977.96	2123.74
978.12	2181.09
978.29	2150.37
978.45	2160.61
978.61	2168.80
978.77	2136.03
978.93	2197.47
979.10	2181.09
979.26	2148.32
979.42	2037.73
979.58	2115.55
979.74	2105.31
979.91	2138.08
980.07	2154.46
980.23	2176.99
980.39	2140.13
980.55	2084.83
980.71	2144.22
980.88	2142.18
981.04	2072.54
981.20	2080.74
981.36	2031.58
981.52	2125.79
981.68	2082.78
981.85	2129.89
982.01	2142.18
982.17	2080.74
982.33	2136.03
982.49	2205.66
982.65	2027.49
982.82	2181.09
982.98	2093.02
983.14	2125.79
983.30	2072.54
983.46	2140.13
983.62	2152.42
983.79	2123.74
983.95	2033.63
984.11	2168.80
984.27	2076.64
984.43	2050.02
984.59	2074.59
984.75	2078.69
984.91	2109.41
985.08	2099.17
985.24	1949.67
985.40	2082.78
985.56	2056.16
985.72	2062.30
985.88	2062.30
986.04	2097.12
986.20	2027.49
986.37	2019.30
986.53	2068.45
986.69	2095.07
986.85	2050.02
987.01	1990.63
987.17	2023.39
987.33	2054.11
987.49	2015.20
987.65	2000.87
987.82	1964.00
987.98	1959.91
988.14	2117.60
988.30	2052.06
988.46	2015.20
988.62	2011.11
988.78	1968.10
988.94	1988.58
989.10	2043.87
989.26	1982.43
989.42	1984.48
989.59	1968.10
989.75	2027.49
989.91	2009.06
990.07	1843.17
990.23	2033.63
990.39	1992.67
990.55	2002.91
990.71	2019.30
990.87	1935.33
991.03	1986.53
991.19	2017.25
991.35	1994.72
991.51	1972.19
991.67	1966.05
991.83	2035.68
992.00	1892.32
992.16	1992.67
992.32	1988.58
992.48	1959.91
992.64	1941.47
992.80	1949.67
992.96	1980.39
993.12	1972.19
993.28	2076.64
993.44	1939.43
993.60	1945.57
993.76	1970.15
993.92	2021.35
994.08	1951.71
994.24	2013.15
994.40	2025.44
994.56	1982.43
994.72	1894.37
994.88	1978.34
995.04	1886.18
995.20	1894.37
995.36	1888.23
995.52	1941.47
995.68	1925.09
995.84	1873.89
996.00	1959.91
996.16	1906.66
996.32	1949.67
996.48	1961.95
996.64	2058.21
996.80	1869.80
996.96	2015.20
997.12	1925.09
997.28	1890.28
997.44	1906.66
997.60	1935.33
997.76	1888.23
997.92	1955.81
998.08	1834.98
998.24	1853.41
998.40	1916.90
998.56	1931.23
998.72	1839.08
998.88	1941.47
999.04	1929.19
999.20	1912.80
999.36	1906.66
999.52	1927.14
999.68	1830.88
999.84	1953.76
1000.00	1947.62
1000.16	1916.90
1000.32	1974.24
1000.48	1877.99
1000.64	1810.40
1000.80	1841.12
1000.95	1867.75
1001.11	1908.71
1001.27	1839.08
1001.43	1785.83
1001.59	1873.89
1001.75	1945.57
1001.91	1853.41
1002.07	1859.56
1002.23	1853.41
1002.39	1826.79
1002.55	1867.75
1002.71	1812.45
1002.87	1781.73
1003.03	1777.64
1003.19	1843.17
1003.34	1822.69
1003.50	1890.28
1003.66	1859.56
1003.82	1886.18
1003.98	1802.21
1004.14	1912.80
1004.30	1855.46
1004.46	1873.89
1004.62	1863.65
1004.78	1761.25
1004.94	1857.51
1005.09	1918.95
1005.25	1816.55
1005.41	1861.60
1005.57	1761.25
1005.73	1824.74
1005.89	1812.45
1006.05	1841.12
1006.21	1855.46
1006.37	1781.73
1006.52	1751.01
1006.68	1855.46
1006.84	1724.39
1007.00	1818.60
1007.16	1812.45
1007.32	1755.11
1007.48	1810.40
1007.64	1777.64
1007.79	1841.12
1007.95	1779.68
1008.11	1753.06
1008.27	1759.21
1008.43	1845.22
1008.59	1927.14
1008.75	1744.87
1008.91	1877.99
1009.06	1777.64
1009.22	1791.97
1009.38	1816.55
1009.54	1804.26
1009.70	1761.25
1009.86	1732.58
1010.01	1767.40
1010.17	1755.11
1010.33	1806.31
1010.49	1708.01
1010.65	1843.17
1010.81	1755.11
1010.96	1791.97
1011.12	1761.25
1011.28	1802.21
1011.44	1775.59
1011.60	1769.44
1011.76	1818.60
1011.91	1732.58
1012.07	1783.78
1012.23	1730.53
1012.39	1777.64
1012.55	1847.27
1012.71	1740.77
1012.86	1710.05
1013.02	1775.59
1013.18	1755.11
1013.34	1656.81
1013.50	1806.31
1013.65	1736.68
1013.81	1710.05
1013.97	1800.16
1014.13	1724.39
1014.29	1808.36
1014.44	1746.92
1014.60	1771.49
1014.76	1722.34
1014.92	1759.21
1015.07	1796.07
1015.23	1812.45
1015.39	1669.09
1015.55	1634.28
1015.71	1744.87
1015.86	1689.57
1016.02	1716.20
1016.18	1677.29
1016.34	1755.11
1016.49	1742.82
1016.65	1818.60
1016.81	1693.67
1016.97	1746.92
1017.12	1730.53
1017.28	1769.44
1017.44	1740.77
1017.60	1748.97
1017.75	1724.39
1017.91	1757.16
1018.07	1742.82
1018.23	1738.73
1018.38	1761.25
1018.54	1730.53
1018.70	1695.72
1018.86	1705.96
1019.01	1718.25
1019.17	1751.01
1019.33	1757.16
1019.49	1722.34
1019.64	1718.25
1019.80	1746.92
1019.96	1683.43
1020.12	1720.29
1020.27	1630.18
1020.43	1691.62
1020.59	1728.49
1020.74	1724.39
1020.90	1738.73
1021.06	1681.38
1021.22	1734.63
1021.37	1699.81
1021.53	1740.77
1021.69	1775.59
1021.84	1658.85
1022.00	1669.09
1022.16	1679.33
1022.31	1695.72
1022.47	1726.44
1022.63	1691.62
1022.79	1683.43
1022.94	1660.90
1023.10	1703.91
1023.26	1687.53
1023.41	1699.81
1023.57	1714.15
1023.73	1744.87
1023.88	1708.01
1024.04	1626.09
1024.20	1714.15
1024.35	1699.81
1024.51	1662.95
1024.67	1667.05
1024.82	1656.81
1024.98	1660.90
1025.14	1689.57
1025.29	1710.05
1025.45	1646.57
1025.61	1724.39
1025.76	1613.80
1025.92	1611.75
1026.08	1705.96
1026.23	1753.06
1026.39	1675.24
1026.55	1761.25
1026.70	1572.84
1026.86	1695.72
1027.02	1662.95
1027.17	1660.90
1027.33	1710.05
1027.48	1667.05
1027.64	1683.43
1027.80	1656.81
1027.95	1679.33
1028.11	1650.66
1028.27	1683.43
1028.42	1742.82
1028.58	1615.85
1028.73	1687.53
1028.89	1667.05
1029.05	1679.33
1029.20	1630.18
>>>>>End Processed Spectral Data<<<<<
