SpectraSuite Data File
++++++++++++++++++++++++++++++++++++
Date: Tue Jun 13 11:56:49 CEST 2017
User: INFO_000
Dark Spectrum Present: No
Reference Spectrum Present: No
Number of Sampled Component Spectra: 1
Spectrometers: USB4H00879
Integration Time (usec): 30000 (USB4H00879)
Spectra Averaged: 1 (USB4H00879)
Boxcar Smoothing: 0 (USB4H00879)
Correct for Electrical Dark: No (USB4H00879)
Strobe/Lamp Enabled: No (USB4H00879)
Correct for Detector Non-linearity: No (USB4H00879)
Correct for Stray Light: No (USB4H00879)
Number of Pixels in Processed Spectrum: 3648
>>>>>Begin Processed Spectral Data<<<<<
345.13	1361.90
345.34	1361.90
345.56	1361.90
345.78	1325.04
345.99	1390.57
346.21	1501.16
346.42	1552.36
346.64	1495.02
346.86	1624.04
347.07	1560.55
347.29	1503.21
347.50	1466.35
347.72	1505.26
347.94	1501.16
348.15	1486.83
348.37	1505.26
348.59	1535.98
348.80	1486.83
349.02	1597.42
349.23	1646.57
349.45	1572.84
349.67	1593.32
349.88	1591.27
350.10	1703.91
350.31	1624.04
350.53	1566.70
350.75	1660.90
350.96	1624.04
351.18	1570.79
351.39	1615.85
351.61	1564.65
351.82	1652.71
352.04	1632.23
352.26	1619.94
352.47	1650.66
352.69	1669.09
352.90	1591.27
353.12	1597.42
353.34	1613.80
353.55	1669.09
353.77	1658.85
353.98	1595.37
354.20	1619.94
354.41	1662.95
354.63	1687.53
354.85	1597.42
355.06	1634.28
355.28	1624.04
355.49	1640.42
355.71	1605.61
355.92	1613.80
356.14	1685.48
356.35	1636.33
356.57	1697.77
356.79	1609.70
357.00	1679.33
357.22	1626.09
357.43	1652.71
357.65	1732.58
357.86	1630.18
358.08	1650.66
358.29	1658.85
358.51	1662.95
358.72	1632.23
358.94	1646.57
359.16	1652.71
359.37	1652.71
359.59	1640.42
359.80	1681.38
360.02	1681.38
360.23	1693.67
360.45	1687.53
360.66	1665.00
360.88	1593.32
361.09	1576.94
361.31	1708.01
361.52	1617.90
361.74	1697.77
361.95	1755.11
362.17	1681.38
362.38	1699.81
362.60	1738.73
362.81	1746.92
363.03	1730.53
363.24	1630.18
363.46	1759.21
363.67	1667.05
363.89	1714.15
364.10	1746.92
364.32	1691.62
364.53	1720.29
364.75	1652.71
364.96	1691.62
365.18	1691.62
365.39	1683.43
365.61	1650.66
365.82	1787.88
366.04	1722.34
366.25	1652.71
366.47	1728.49
366.68	1744.87
366.90	1656.81
367.11	1789.92
367.33	1718.25
367.54	1769.44
367.76	1720.29
367.97	1789.92
368.19	1796.07
368.40	1732.58
368.62	1728.49
368.83	1669.09
369.05	1734.63
369.26	1759.21
369.48	1740.77
369.69	1732.58
369.91	1804.26
370.12	1740.77
370.33	1787.88
370.55	1681.38
370.76	1773.54
370.98	1724.39
371.19	1751.01
371.41	1787.88
371.62	1794.02
371.84	1712.10
372.05	1783.78
372.27	1728.49
372.48	1728.49
372.69	1736.68
372.91	1820.64
373.12	1802.21
373.34	1787.88
373.55	1812.45
373.77	1777.64
373.98	1818.60
374.20	1800.16
374.41	1898.47
374.62	1810.40
374.84	1810.40
375.05	1839.08
375.27	1832.93
375.48	1859.56
375.70	1865.70
375.91	1869.80
376.12	1923.04
376.34	1773.54
376.55	1886.18
376.77	1886.18
376.98	1861.60
377.19	1941.47
377.41	1902.56
377.62	1834.98
377.84	1910.75
378.05	1931.23
378.27	1894.37
378.48	1933.28
378.69	1896.42
378.91	1925.09
379.12	1884.13
379.34	1877.99
379.55	1988.58
379.76	1912.80
379.98	1906.66
380.19	1978.34
380.41	1966.05
380.62	1931.23
380.83	1888.23
381.05	2007.01
381.26	1953.76
381.47	1914.85
381.69	2002.91
381.90	2025.44
382.12	1957.86
382.33	1996.77
382.54	1970.15
382.76	1943.52
382.97	1953.76
383.19	1955.81
383.40	2056.16
383.61	2000.87
383.83	2013.15
384.04	1955.81
384.25	1957.86
384.47	2043.87
384.68	1996.77
384.89	1933.28
385.11	2023.39
385.32	1986.53
385.54	2047.97
385.75	2031.58
385.96	2066.40
386.18	1990.63
386.39	2078.69
386.60	1988.58
386.82	1988.58
387.03	2027.49
387.24	2129.89
387.46	2193.37
387.67	2039.78
387.88	2064.35
388.10	2127.84
388.31	2039.78
388.52	2207.71
388.74	2121.70
388.95	2109.41
389.16	2095.07
389.38	2203.61
389.59	2170.85
389.80	2252.77
390.02	2162.66
390.23	2232.29
390.44	2242.53
390.66	2209.76
390.87	2142.18
391.08	2181.09
391.30	2232.29
391.51	2220.00
391.72	2179.04
391.94	2220.00
392.15	2224.09
392.36	2250.72
392.58	2252.77
392.79	2152.42
393.00	2308.06
393.22	2269.15
393.43	2246.62
393.64	2332.64
393.85	2379.74
394.07	2306.01
394.28	2324.44
394.49	2396.12
394.71	2349.02
394.92	2406.36
395.13	2299.87
395.35	2320.35
395.56	2299.87
395.77	2424.80
395.98	2418.65
396.20	2406.36
396.41	2451.42
396.62	2410.46
396.84	2383.84
397.05	2449.37
397.26	2439.13
397.47	2551.77
397.69	2344.92
397.90	2500.57
398.11	2426.84
398.32	2455.51
398.54	2445.27
398.75	2488.28
398.96	2555.86
399.18	2559.96
399.39	2551.77
399.60	2592.73
399.81	2492.38
400.03	2570.20
400.24	2691.03
400.45	2469.85
400.66	2607.06
400.88	2648.02
401.09	2672.60
401.30	2621.40
401.51	2590.68
401.73	2662.36
401.94	2615.26
402.15	2633.69
402.36	2672.60
402.58	2731.99
402.79	2699.22
403.00	2680.79
403.21	2676.70
403.43	2672.60
403.64	2791.38
403.85	2613.21
404.06	2650.07
404.27	2652.12
404.49	2748.37
404.70	2721.75
404.91	2811.86
405.12	2746.33
405.34	2740.18
405.55	2996.18
405.76	2684.89
405.97	2709.46
406.19	2783.19
406.40	2746.33
406.61	2854.87
406.82	2865.11
407.03	2791.38
407.25	2858.96
407.46	2791.38
407.67	2940.88
407.88	2938.84
408.09	2928.60
408.31	2846.68
408.52	2881.49
408.73	2824.15
408.94	2867.16
409.15	2861.01
409.37	2990.03
409.58	2918.36
409.79	2965.46
410.00	3020.75
410.21	2983.89
410.43	2871.25
410.64	2977.75
410.85	3151.82
411.06	3098.58
411.27	2940.88
411.48	3078.10
411.70	3002.32
411.91	3037.14
412.12	3186.64
412.33	3090.38
412.54	3184.59
412.76	3102.67
412.97	3045.33
413.18	2944.98
413.39	3069.91
413.60	3127.25
413.81	3164.11
414.03	3229.65
414.24	3078.10
414.45	3182.54
414.66	3028.95
414.87	3180.50
415.08	3182.54
415.30	3188.69
415.51	3217.36
415.72	3270.61
415.93	3160.02
416.14	3239.89
416.35	3235.79
416.56	3293.13
416.78	3252.17
416.99	3284.94
417.20	3327.95
417.41	3346.38
417.62	3366.86
417.83	3444.68
418.04	3362.76
418.26	3348.43
418.47	3323.85
418.68	3385.29
418.89	3362.76
419.10	3481.55
419.31	3442.64
419.52	3590.09
419.73	3524.55
419.95	3401.68
420.16	3426.25
420.37	3483.59
420.58	3542.99
420.79	3487.69
421.00	3618.76
421.21	3600.33
421.42	3491.79
421.63	3737.54
421.85	3555.27
422.06	3651.53
422.27	3637.19
422.48	3669.96
422.69	3678.15
422.90	3692.49
423.11	3665.86
423.32	3686.34
423.53	3753.93
423.75	3770.31
423.96	3753.93
424.17	3809.22
424.38	3755.97
424.59	3766.21
424.80	3913.67
425.01	3819.46
425.22	3844.04
425.43	3813.32
425.64	3960.77
425.85	3923.91
426.06	3846.09
426.28	3987.40
426.49	3911.62
426.70	3950.53
426.91	4057.03
427.12	4184.00
427.33	4083.65
427.54	3917.76
427.75	4044.74
427.96	4294.59
428.17	4026.31
428.38	4218.82
428.59	4204.48
428.80	4143.04
429.01	4186.05
429.23	4302.78
429.44	4337.60
429.65	4306.88
429.86	4347.84
430.07	4136.90
430.28	4245.44
430.49	4317.12
430.70	4460.48
430.91	4380.61
431.12	4485.05
431.33	4356.03
431.54	4480.96
431.75	4409.28
431.96	4517.82
432.17	4474.81
432.38	4454.33
432.59	4661.18
432.80	4601.79
433.01	4550.59
433.22	4698.04
433.43	4614.07
433.64	4659.13
433.85	4448.19
434.06	4743.10
434.27	4618.17
434.49	4798.39
434.70	4847.54
434.91	4835.25
435.12	4708.28
435.33	4710.33
435.54	4804.53
435.75	4644.79
435.96	4853.69
436.17	4755.38
436.38	4892.60
436.59	4720.57
436.80	4933.56
437.01	4919.22
437.22	5021.62
437.43	4947.89
437.64	4917.17
437.85	5093.30
438.06	5081.01
438.27	4906.93
438.48	4997.04
438.69	5210.03
438.90	4898.74
439.11	5068.72
439.32	5107.63
439.53	5238.70
439.74	5072.82
439.95	5068.72
440.16	5250.99
440.37	5322.67
440.57	5126.07
440.78	5144.50
440.99	5212.08
441.20	5201.84
441.41	5191.60
441.62	5191.60
441.83	5175.22
442.04	5355.44
442.25	5394.35
442.46	5449.64
442.67	5513.13
442.88	5619.63
443.09	5423.02
443.30	5466.03
443.51	5406.64
443.72	5658.54
443.93	5535.66
444.14	5660.59
444.35	5355.44
444.56	5578.67
444.77	5640.11
444.98	5566.38
445.19	5724.07
445.40	5517.23
445.61	5552.04
445.81	5722.02
446.02	5732.26
446.23	5541.80
446.44	5633.96
446.65	5773.22
446.86	5640.11
447.07	5785.51
447.28	6004.64
447.49	5826.47
447.70	5801.90
447.91	5709.74
448.12	5912.49
448.33	6047.65
448.54	5990.31
448.74	5797.80
448.95	6090.66
449.16	5828.52
449.37	6393.76
449.58	6055.84
449.79	6156.19
450.00	5861.29
450.21	6217.63
450.42	6197.15
450.63	6188.96
450.84	6172.58
451.05	6107.04
451.25	6303.65
451.46	6197.15
451.67	6283.17
451.88	6438.81
452.09	6379.42
452.30	6360.99
452.51	6475.68
452.72	6289.31
452.93	6643.61
453.13	6561.69
453.34	6483.87
453.55	6582.17
453.76	6500.25
453.97	6913.94
454.18	6619.04
454.39	6576.03
454.60	6674.33
454.81	6533.02
455.01	6897.56
455.22	6612.89
455.43	6680.47
455.64	6793.11
455.85	7012.24
456.06	6866.84
456.27	6854.55
456.48	6915.99
456.68	6866.84
456.89	6866.84
457.10	7137.17
457.31	7171.99
457.52	7061.40
457.73	7012.24
457.94	7196.56
458.14	6975.38
458.35	7528.33
458.56	7307.15
458.77	7280.53
458.98	7466.89
459.19	7362.45
459.39	7522.19
459.60	7528.33
459.81	7358.35
460.02	7612.30
460.23	7724.94
460.44	7737.23
460.65	7686.03
460.85	7677.83
461.06	7757.71
461.27	7559.05
461.48	7899.02
461.69	7860.10
461.89	7810.95
462.10	7819.14
462.31	7790.47
462.52	7880.58
462.73	7962.50
462.94	7966.60
463.14	8284.03
463.35	7952.26
463.56	8251.27
463.77	8312.71
463.98	8208.26
464.18	8267.65
464.39	8400.77
464.60	8611.71
464.81	8486.78
465.02	8460.16
465.23	8628.09
465.43	8269.70
465.64	8765.31
465.85	8728.44
466.06	8580.99
466.27	8970.10
466.47	8732.54
466.68	8865.66
466.89	8859.51
467.10	9131.89
467.30	8929.14
467.51	8953.72
467.72	9230.20
467.93	8873.85
468.14	9183.09
468.34	9244.53
468.55	9322.35
468.76	9391.98
468.97	9406.32
469.17	9488.24
469.38	9633.64
469.59	9568.11
469.80	9518.96
470.01	9480.05
470.21	9455.47
470.42	9832.30
470.63	10022.76
470.84	9836.39
471.04	9959.27
471.25	9709.42
471.46	10047.33
471.67	10155.88
471.87	10039.14
472.08	10225.51
472.29	10370.91
472.50	10145.64
472.70	10401.63
472.91	10405.73
473.12	10770.27
473.33	10596.19
473.53	10659.68
473.74	10735.45
473.95	10925.91
474.16	11020.12
474.36	11083.61
474.57	11036.50
474.78	11183.96
474.99	11077.46
475.19	11177.81
475.40	11306.84
475.61	11431.76
475.81	11427.67
476.02	11659.09
476.23	11462.48
476.44	11689.81
476.64	11745.10
476.85	11982.67
477.06	11964.23
477.27	12164.93
477.47	11994.95
477.68	12099.40
477.89	12177.22
478.09	12076.87
478.30	12324.68
478.51	12357.44
478.71	12670.78
478.92	12648.26
479.13	12584.77
479.34	12740.41
479.54	12719.93
479.75	12844.86
479.96	12851.00
480.16	13055.80
480.37	13303.60
480.58	13375.28
480.78	13381.43
480.99	13477.68
481.20	13426.48
481.41	13664.05
481.61	13645.62
481.82	13596.46
482.03	13805.36
482.23	13799.21
482.44	13905.71
482.65	14065.45
482.85	14173.99
483.06	14276.39
483.27	14292.77
483.47	14157.61
483.68	14495.52
483.89	14438.18
484.09	14462.76
484.30	14632.74
484.51	14780.19
484.71	15116.06
484.92	14855.97
485.13	15044.38
485.33	14970.65
485.54	15052.57
485.75	15300.37
485.95	15384.34
486.16	15488.79
486.37	15353.62
486.57	15501.08
486.78	15783.70
486.98	15656.72
487.19	15730.45
487.40	16125.71
487.60	15937.29
487.81	16146.19
488.02	15935.24
488.22	15929.10
488.43	16264.97
488.64	16260.87
488.84	16498.44
489.05	16426.76
489.25	16488.20
489.46	16701.19
489.67	16504.58
489.87	16981.76
490.08	16953.09
490.29	16895.74
490.49	17061.63
490.70	17413.88
490.90	17389.30
491.11	17372.92
491.32	17540.85
491.52	17143.55
491.73	17432.31
491.94	17479.41
492.14	17522.42
492.35	17977.07
492.55	17684.21
492.76	18067.18
492.97	17925.87
493.17	18173.67
493.38	18130.67
493.58	18333.42
493.79	18261.74
494.00	18056.94
494.20	18390.76
494.41	18745.06
494.61	18468.58
494.82	18509.54
495.02	18767.59
495.23	18745.06
495.44	18876.13
495.64	19009.25
495.85	19027.68
496.05	19218.14
496.26	18978.53
496.47	19324.63
496.67	19179.23
496.88	19472.09
497.08	19660.50
497.29	19820.24
497.49	19408.60
497.70	19906.26
497.91	20029.13
498.11	19760.85
498.32	19810.00
498.52	20270.79
498.73	20285.13
498.93	20362.95
499.14	20301.51
499.34	20006.61
499.55	20489.93
499.76	20448.97
499.96	20336.33
500.17	20553.41
500.37	20410.06
500.58	20295.37
500.78	20821.70
500.99	20776.64
501.19	20850.37
501.40	20946.62
501.60	21001.92
501.81	20956.86
502.02	21006.02
502.22	21100.22
502.43	21274.30
502.63	21372.60
502.84	21423.80
503.04	21247.68
503.25	21452.47
503.45	21552.82
503.66	21814.96
503.86	21407.42
504.07	21771.96
504.27	21708.47
504.48	21919.41
504.68	21763.76
504.89	22234.80
505.09	22204.08
505.30	21839.54
505.50	21958.32
505.71	22097.58
505.91	22189.74
506.12	22242.99
506.32	22460.07
506.53	22357.67
506.73	22537.90
506.94	22671.01
507.14	22419.11
507.35	22453.93
507.55	22636.20
507.76	22445.74
507.96	22402.73
508.17	22746.79
508.37	22765.22
508.58	22664.87
508.78	22750.88
508.99	23000.74
509.19	23119.52
509.40	22914.72
509.60	22838.95
509.81	23031.46
510.01	23166.62
510.22	23285.40
510.42	23318.17
510.63	23361.18
510.83	23064.22
511.04	23172.77
511.24	23750.29
511.44	23514.78
511.65	23574.17
511.85	23459.48
512.06	23572.12
512.26	23236.25
512.47	24080.02
512.67	23942.80
512.88	23860.88
513.08	23613.08
513.29	24018.58
513.49	23977.62
513.69	23709.33
513.90	23852.69
514.10	24084.11
514.31	24032.91
514.51	24137.36
514.72	24100.50
514.92	24116.88
515.13	24125.07
515.33	24368.78
515.53	24370.83
515.74	24407.69
515.94	24510.09
516.15	24120.98
516.35	24610.44
516.56	24446.60
516.76	24358.54
516.96	24243.85
517.17	24487.56
517.37	24739.46
517.58	24905.35
517.78	24622.73
517.99	25063.04
518.19	24794.76
518.39	25314.94
518.60	25022.08
518.80	25112.19
519.01	25159.30
519.21	25321.09
519.41	25194.11
519.62	25263.74
519.82	25400.96
520.03	25646.71
520.23	25585.27
520.43	25302.65
520.64	25327.23
520.84	25734.78
521.05	25441.92
521.25	26021.49
521.45	26054.26
521.66	25955.96
521.86	25568.89
522.07	25966.20
522.27	25945.72
522.47	25835.13
522.68	26140.27
522.88	26396.27
523.08	26476.14
523.29	26386.03
523.49	26461.80
523.70	26318.45
523.90	26605.16
524.10	26498.67
524.31	26785.38
524.51	26648.17
524.71	26924.65
524.92	26758.76
525.12	26957.41
525.33	26803.82
525.53	27258.46
525.73	27346.53
525.94	27465.31
526.14	27324.00
526.34	27379.29
526.55	27459.16
526.75	27389.53
526.95	27522.65
527.16	27459.16
527.36	27614.81
527.56	27823.70
527.77	27774.55
527.97	27704.92
528.17	27432.54
528.38	27731.54
528.58	27897.43
528.78	27879.00
528.99	27797.08
529.19	28227.15
529.39	28151.38
529.60	28540.49
529.80	27911.77
530.00	28302.93
530.21	28597.84
530.41	28501.58
530.61	28366.42
530.82	28646.99
531.02	28603.98
531.22	28806.73
531.43	28599.88
531.63	28948.04
531.83	29232.71
532.04	29021.77
532.24	28841.54
532.44	29400.64
532.64	29433.41
532.85	29632.06
533.05	29500.99
533.25	29345.34
533.46	29378.11
533.66	29922.87
533.86	29382.21
534.07	30055.99
534.27	29845.05
534.47	30111.28
534.67	30101.04
534.88	30205.49
535.08	29902.39
535.28	30432.82
535.49	30311.99
535.69	30553.65
535.89	30619.18
536.09	30453.30
536.30	30580.27
536.50	30793.26
536.70	30909.99
536.91	31034.92
537.11	31149.60
537.31	31184.42
537.51	31137.32
537.72	31229.48
537.92	31028.77
538.12	31626.78
538.32	31657.50
538.53	31473.18
538.73	31237.67
538.93	31454.75
539.13	31446.56
539.34	31604.25
539.54	31501.86
539.74	31976.98
539.94	31696.41
540.15	31684.12
540.35	32081.43
540.55	32069.14
540.75	31942.17
540.96	32052.76
541.16	32056.85
541.36	32132.63
541.56	31948.31
541.77	32417.30
541.97	32554.51
542.17	32577.04
542.37	32382.48
542.58	32247.32
542.78	32435.73
542.98	32689.68
543.18	32445.97
543.38	33250.82
543.59	32488.98
543.79	32663.05
543.99	33158.66
544.19	32912.91
544.40	32806.41
544.60	33158.66
544.80	32620.05
545.00	32820.75
545.20	33304.07
545.41	32970.25
545.61	33209.86
545.81	33115.65
546.01	33361.41
546.21	33449.47
546.42	33480.19
546.62	33388.03
546.82	33125.89
547.02	33496.58
547.22	33641.98
547.43	33570.30
547.63	33721.85
547.83	33654.27
548.03	33414.66
548.23	34106.87
548.44	33875.45
548.64	34006.52
548.84	34045.43
549.04	33930.75
549.24	34158.07
549.45	33967.61
549.65	34035.19
549.85	33998.33
550.05	34053.62
550.25	33893.88
550.45	34659.82
550.66	34082.30
550.86	34469.36
551.06	34721.26
551.26	34612.72
551.46	34743.79
551.66	34471.41
551.87	34102.78
552.07	34467.31
552.27	34481.65
552.47	34459.12
552.67	34606.58
552.87	34702.83
553.07	34876.91
553.28	34717.17
553.48	35245.54
553.68	34522.61
553.88	35190.25
554.08	34887.15
554.28	35134.95
554.48	35014.12
554.69	35151.34
554.89	35241.45
555.09	35116.52
555.29	35218.92
555.49	35378.66
555.69	35155.43
555.89	35075.56
556.10	34936.30
556.30	35171.82
556.50	35247.59
556.70	35075.56
556.90	35128.81
557.10	35270.12
557.30	35143.14
557.50	35560.93
557.70	35628.51
557.91	35468.77
558.11	35306.98
558.31	35493.35
558.51	35614.18
558.71	35603.94
558.91	35646.94
559.11	35444.20
559.31	35716.58
559.51	35620.32
559.72	35704.29
559.92	35923.42
560.12	35522.02
560.32	35665.38
560.52	35630.56
560.72	35794.40
560.92	35737.05
561.12	35749.34
561.32	36146.65
561.52	35818.97
561.72	36150.74
561.93	35884.51
562.13	36165.08
562.33	35599.84
562.53	36251.09
562.73	35851.74
562.93	36070.87
563.13	36003.29
563.33	36081.11
563.53	36335.06
563.73	35870.17
563.93	36308.44
564.13	36478.42
564.33	36240.86
564.53	36421.08
564.74	37006.80
564.94	36230.62
565.14	36382.16
565.34	36455.89
565.54	36277.72
565.74	36386.26
565.94	36718.03
566.14	36171.22
566.34	36470.23
566.54	36726.22
566.74	35974.62
566.94	37049.80
567.14	36523.47
567.34	36392.40
567.54	36675.02
567.74	36558.29
567.94	36756.94
568.14	36920.78
568.34	36797.90
568.54	36646.35
568.74	36922.83
568.94	36793.81
569.14	37062.09
569.34	37131.72
569.54	37180.87
569.75	36791.76
569.95	36939.21
570.15	37174.73
570.35	36865.49
570.55	37062.09
570.75	36701.65
570.95	37213.64
571.15	36928.97
571.35	37191.11
571.55	37252.55
571.75	37230.02
571.95	37164.49
572.15	36660.69
572.35	37055.95
572.55	37504.45
572.75	37688.77
572.95	37834.17
573.15	37336.52
573.35	37404.10
573.55	37213.64
573.75	37588.42
573.95	37432.77
574.15	37385.67
574.35	37455.30
574.55	37797.31
574.75	37432.77
574.95	37334.47
575.15	37955.00
575.34	37811.65
575.54	37664.19
575.74	37946.81
575.94	38190.52
576.14	37797.31
576.34	37789.12
576.54	38036.92
576.74	38190.52
576.94	37844.41
577.14	37868.99
577.34	38016.44
577.54	37670.34
577.74	38026.68
577.94	38299.06
578.14	38301.11
578.34	38133.18
578.54	37914.05
578.74	38032.83
578.94	38602.16
579.14	38024.64
579.34	38178.23
579.54	38448.57
579.74	38708.66
579.94	38278.58
580.13	38477.24
580.33	38223.29
580.53	38598.07
580.73	38632.88
580.93	38571.44
581.13	38495.67
581.33	38620.59
581.53	38927.79
581.73	38792.62
581.93	39015.85
582.13	38856.11
582.33	38966.70
582.53	38636.98
582.73	39241.13
582.92	38991.28
583.12	39435.69
583.32	39347.62
583.52	38966.70
583.72	39261.61
583.92	39224.75
584.12	39226.79
584.32	39574.95
584.52	39347.62
584.72	39658.91
584.92	39615.91
585.11	39953.82
585.31	39277.99
585.51	39744.93
585.71	39544.23
585.91	39601.57
586.11	39634.34
586.31	39529.89
586.51	39656.87
586.71	39560.61
586.91	39830.94
587.10	39798.18
587.30	39650.72
587.50	39609.76
587.70	40287.64
587.90	39538.08
588.10	39968.16
588.30	39642.53
588.50	40484.25
588.69	40328.60
588.89	39822.75
589.09	40144.28
589.29	40025.50
589.49	40220.06
589.69	39994.78
589.89	40179.10
590.08	40140.19
590.28	40175.00
590.48	39789.98
590.68	39906.72
590.88	40424.86
591.08	40261.02
591.28	40246.68
591.47	40715.67
591.67	40285.59
591.87	40582.55
592.07	40412.57
592.27	40539.54
592.47	40443.29
592.67	40484.25
592.86	40549.78
593.06	40265.11
593.26	40844.69
593.46	40580.50
593.66	40406.42
593.86	40426.90
594.05	40424.86
594.25	40627.60
594.45	40428.95
594.65	40600.98
594.85	40850.83
595.05	41104.78
595.24	40760.72
595.44	40701.33
595.64	40742.29
595.84	41055.63
596.04	40953.23
596.23	40680.85
596.43	41137.55
596.63	40801.68
596.83	41004.43
597.03	41280.91
597.22	41594.25
597.42	41137.55
597.62	41223.56
597.82	41176.46
598.02	41446.79
598.21	41305.48
598.41	40996.24
598.61	41096.59
598.81	41543.05
599.01	41489.80
599.20	41244.04
599.40	41145.74
599.60	41559.43
599.80	41694.60
600.00	41526.66
600.19	41768.32
600.39	41512.33
600.59	42067.33
600.79	41653.64
600.98	41346.44
601.18	41764.23
601.38	41831.81
601.58	41985.41
601.78	42126.72
601.97	41516.42
602.17	42112.38
602.37	41989.50
602.57	42077.57
602.76	42378.62
602.96	41739.65
603.16	41866.63
603.36	42044.80
603.55	42368.38
603.75	42591.61
603.95	42378.62
604.15	41932.16
604.34	41915.78
604.54	42538.36
604.74	42583.41
604.94	42263.93
605.13	42143.10
605.33	42501.50
605.53	42225.02
605.73	42601.85
605.92	42599.80
606.12	42507.64
606.32	42372.47
606.52	42321.27
606.71	42620.28
606.91	42671.48
607.11	42050.94
607.30	42741.11
607.50	42581.37
607.70	42872.18
607.90	42683.76
608.09	42755.44
608.29	42935.66
608.49	42970.48
608.68	42708.34
608.88	42546.55
609.08	42792.31
609.28	42536.31
609.47	42569.08
609.67	42929.52
609.87	42618.23
610.06	42999.15
610.26	42839.41
610.46	43197.80
610.66	43029.87
610.85	43093.36
611.05	42921.33
611.25	42775.92
611.44	42843.51
611.64	43052.40
611.84	43115.89
612.03	43117.93
612.23	42950.00
612.43	43173.23
612.62	43140.46
612.82	43113.84
613.02	42562.93
613.21	42886.51
613.41	43015.54
613.61	42638.71
613.80	42603.89
614.00	42818.93
614.20	43079.02
614.39	42947.95
614.59	42913.14
614.79	43025.78
614.98	42771.83
615.18	42691.96
615.38	43281.77
615.57	42669.43
615.77	42982.77
615.97	43283.82
616.16	42855.79
616.36	42720.63
616.56	42833.27
616.75	43267.44
616.95	42784.12
617.15	42804.59
617.34	42974.58
617.54	42481.02
617.74	42943.86
617.93	42683.76
618.13	42419.58
618.32	42958.19
618.52	42202.49
618.72	42954.10
618.91	42794.36
619.11	42521.98
619.31	42751.35
619.50	42497.40
619.70	42771.83
619.90	42820.98
620.09	42886.51
620.29	42548.60
620.48	42831.22
620.68	43029.87
620.88	42268.03
621.07	42581.37
621.27	42904.95
621.46	42345.85
621.66	42816.88
621.86	42376.57
622.05	42329.47
622.25	42835.31
622.44	42663.28
622.64	42552.69
622.84	42843.51
623.03	42261.88
623.23	42237.31
623.42	42366.33
623.62	42653.05
623.82	42386.81
624.01	42151.29
624.21	42495.35
624.40	42560.89
624.60	42397.05
624.80	42472.82
624.99	42038.65
625.19	42081.66
625.38	42562.93
625.58	42239.36
625.77	42411.38
625.97	42263.93
626.17	42028.41
626.36	42454.39
626.56	41921.92
626.75	41854.34
626.95	42435.96
627.14	42446.20
627.34	42292.60
627.54	42444.15
627.73	42167.68
627.93	42169.72
628.12	41698.69
628.32	42208.64
628.51	41844.10
628.71	42124.67
628.90	42442.10
629.10	42016.13
629.30	41899.39
629.49	42130.81
629.69	41850.24
629.88	42216.83
630.08	42325.37
630.27	42048.89
630.47	42028.41
630.66	41909.63
630.86	42515.83
631.05	41883.01
631.25	42382.71
631.44	41934.21
631.64	41981.31
631.84	42304.89
632.03	42265.98
632.23	42012.03
632.42	42163.58
632.62	42388.86
632.81	41704.84
633.01	41796.99
633.20	41987.46
633.40	42096.00
633.59	41862.53
633.79	41772.42
633.98	42073.47
634.18	42200.44
634.37	41899.39
634.57	41928.06
634.76	42155.39
634.96	42139.00
635.15	42022.27
635.35	41936.26
635.54	42141.05
635.74	42104.19
635.93	41997.70
636.13	42218.88
636.32	42157.44
636.52	41594.25
636.71	41946.50
636.91	41919.87
637.10	41805.19
637.30	41731.46
637.49	41987.46
637.69	41602.44
637.88	42042.75
638.08	42118.53
638.27	41905.54
638.46	41649.54
638.66	41647.49
638.85	41819.52
639.05	41567.62
639.24	42001.79
639.44	41733.51
639.63	42249.60
639.83	41858.43
640.02	41858.43
640.22	41887.10
640.41	42182.01
640.61	41373.06
640.80	42132.86
640.99	41467.27
641.19	42216.83
641.38	42028.41
641.58	42075.52
641.77	41633.16
641.97	41538.95
642.16	41557.38
642.36	41917.82
642.55	42145.15
642.74	41291.15
642.94	42155.39
643.13	41500.04
643.33	41635.20
643.52	42194.30
643.72	41928.06
643.91	41921.92
644.10	41780.61
644.30	41954.69
644.49	41379.21
644.69	42216.83
644.88	41639.30
645.08	41473.42
645.27	41794.95
645.46	41420.17
645.66	41756.03
645.85	41790.85
646.05	41837.95
646.24	41792.90
646.43	41665.92
646.63	41856.39
646.82	42007.94
647.02	41792.90
647.21	41731.46
647.40	41796.99
647.60	41579.91
647.79	41739.65
647.99	41837.95
648.18	41612.68
648.37	42044.80
648.57	41485.70
648.76	41901.44
648.96	41760.13
649.15	42048.89
649.34	41821.57
649.54	41538.95
649.73	41698.69
649.92	42112.38
650.12	41364.87
650.31	41637.25
650.51	41872.77
650.70	42116.48
650.89	41561.48
651.09	41811.33
651.28	41917.82
651.47	41907.58
651.67	41874.82
651.86	42032.51
652.06	41543.05
652.25	41672.07
652.44	41717.12
652.64	41737.60
652.83	41653.64
653.02	41581.96
653.22	41401.74
653.41	41454.98
653.60	41514.37
653.80	41039.25
653.99	41471.37
654.18	41311.63
654.38	41747.84
654.57	41735.56
654.76	41137.55
654.96	41059.73
655.15	41715.08
655.34	41121.16
655.54	41166.22
655.73	41557.38
655.92	41602.44
656.12	41581.96
656.31	41291.15
656.50	41395.59
656.70	41416.07
656.89	41446.79
657.08	41588.10
657.28	41469.32
657.47	41180.56
657.66	41784.71
657.86	41127.31
658.05	41205.13
658.24	41495.94
658.43	41285.00
658.63	41471.37
658.82	41520.52
659.01	41420.17
659.21	41149.84
659.40	41467.27
659.59	41309.58
659.79	41319.82
659.98	41770.37
660.17	41377.16
660.36	41465.22
660.56	41395.59
660.75	41432.46
660.94	41637.25
661.14	41141.64
661.33	41153.93
661.52	41086.35
661.71	41772.42
661.91	41198.99
662.10	40732.05
662.29	41348.49
662.49	41407.88
662.68	41543.05
662.87	41256.33
663.06	41614.72
663.26	41117.07
663.45	41258.38
663.64	40955.28
663.83	41471.37
664.03	41469.32
664.22	41229.71
664.41	41072.01
664.60	40730.00
664.80	41213.32
664.99	40795.54
665.18	41403.78
665.37	41106.83
665.57	41074.06
665.76	41215.37
665.95	41481.61
666.14	40930.70
666.34	41178.51
666.53	40955.28
666.72	40805.78
666.91	41082.25
667.11	40963.47
667.30	41323.91
667.49	40877.46
667.68	41254.28
667.87	41055.63
668.07	40973.71
668.26	40641.94
668.45	41123.21
668.64	40617.36
668.84	41184.65
669.03	40899.98
669.22	40615.32
669.41	41012.62
669.60	40818.07
669.80	40342.94
669.99	40873.36
670.18	40912.27
670.37	41092.49
670.57	41086.35
670.76	40498.58
670.95	40727.95
671.14	40760.72
671.33	40428.95
671.53	40824.21
671.72	40555.93
671.91	40551.83
672.10	40621.46
672.29	40461.72
672.48	40531.35
672.68	40721.81
672.87	40459.67
673.06	40447.38
673.25	40498.58
673.44	40193.43
673.64	40250.78
673.83	40191.39
674.02	40449.43
674.21	40125.85
674.40	40443.29
674.59	40379.80
674.79	40383.90
674.98	40242.59
675.17	40361.37
675.36	40304.02
675.55	40402.33
675.74	39933.34
675.94	40107.42
676.13	40422.81
676.32	40367.51
676.51	40676.76
676.70	40150.43
676.89	40048.03
677.08	40426.90
677.28	39935.39
677.47	40111.52
677.66	40312.22
677.85	40045.98
678.04	40576.40
678.23	40398.23
678.42	39861.66
678.62	40064.41
678.81	39998.88
679.00	39794.08
679.19	40361.37
679.38	39808.42
679.57	40220.06
679.76	39937.44
679.96	40115.61
680.15	39923.10
680.34	39853.47
680.53	39906.72
680.72	39900.58
680.91	40115.61
681.10	39972.25
681.29	39919.01
681.48	39902.62
681.68	39839.14
681.87	39427.49
682.06	39916.96
682.25	39462.31
682.44	39761.31
682.63	39601.57
682.82	39220.65
683.01	39515.56
683.20	39110.06
683.39	39660.96
683.59	39196.07
683.78	39353.77
683.97	39116.20
684.16	39415.21
684.35	39194.03
684.54	39673.25
684.73	39318.95
684.92	39171.50
685.11	38804.91
685.30	39232.94
685.49	39265.70
685.69	39161.26
685.88	39450.02
686.07	38661.55
686.26	39001.52
686.45	39022.00
686.64	38925.74
686.83	38927.79
687.02	39194.03
687.21	39157.16
687.40	38968.75
687.59	39325.10
687.78	39046.57
687.97	39198.12
688.16	38895.02
688.35	38948.27
688.54	38630.83
688.74	38829.49
688.93	38907.31
689.12	38839.73
689.31	38899.12
689.50	38700.47
689.69	38628.79
689.88	38137.27
690.07	38622.64
690.26	38677.94
690.45	38905.26
690.64	38663.60
690.83	38530.48
691.02	38467.00
691.21	38477.24
691.40	38522.29
691.59	38663.60
691.78	38172.09
691.97	38380.98
692.16	38372.79
692.35	38231.48
692.54	38342.07
692.73	38426.04
692.92	38436.28
693.11	38401.46
693.30	38307.26
693.49	38364.60
693.68	37985.72
693.87	37903.81
694.06	38458.81
694.25	38323.64
694.44	37991.87
694.63	38086.07
694.82	37891.52
695.01	37985.72
695.20	37889.47
695.39	38036.92
695.58	37762.50
695.77	37586.37
695.96	37344.71
696.15	37690.82
696.34	37977.53
696.53	37637.57
696.72	37770.69
696.91	37617.09
697.10	37625.28
697.29	37592.51
697.48	37408.20
697.67	37465.54
697.86	37402.05
698.05	37357.00
698.24	37647.81
698.43	37127.63
698.62	37064.14
698.81	37076.43
699.00	37713.34
699.19	37191.11
699.38	37305.80
699.57	36908.49
699.76	37703.10
699.95	37199.30
700.14	36926.92
700.32	36992.46
700.51	37080.52
700.70	37279.18
700.89	37199.30
701.08	37254.60
701.27	36928.97
701.46	37313.99
701.65	36629.97
701.84	37313.99
702.03	36746.70
702.22	36691.41
702.41	36871.63
702.60	36871.63
702.79	37094.86
702.98	36664.78
703.17	36656.59
703.35	36447.70
703.54	36652.50
703.73	36812.24
703.92	36634.06
704.11	36597.20
704.30	36494.80
704.49	36449.75
704.68	36160.98
704.87	36457.94
705.06	36238.81
705.25	36349.40
705.43	36152.79
705.62	36464.08
705.81	35913.18
706.00	36247.00
706.19	35745.25
706.38	36265.43
706.57	36031.96
706.76	36189.66
706.95	35892.70
707.14	35603.94
707.32	35388.90
707.51	35880.41
707.70	35716.58
707.89	35741.15
708.08	36105.69
708.27	35851.74
708.46	36050.39
708.65	35638.75
708.84	35878.36
709.02	35868.12
709.21	35614.18
709.40	35665.38
709.59	35663.33
709.78	35532.26
709.97	35923.42
710.16	35452.39
710.34	35362.28
710.53	35231.21
710.72	35223.01
710.91	35522.02
711.10	35499.49
711.29	35237.35
711.48	35345.89
711.66	35204.58
711.85	35040.75
712.04	35425.76
712.23	35139.05
712.42	35126.76
712.61	35139.05
712.80	35255.78
712.98	35268.07
713.17	34915.82
713.36	35124.71
713.55	34950.63
713.74	34952.68
713.93	35165.67
714.11	35233.25
714.30	34768.37
714.49	34979.31
714.68	34862.57
714.87	34661.87
715.06	34756.08
715.24	34635.25
715.43	34534.90
715.62	34141.69
715.81	34262.52
716.00	34735.60
716.18	34354.68
716.37	34350.58
716.56	34264.57
716.75	34606.58
716.94	34172.41
717.12	34287.09
717.31	34516.47
717.50	33826.30
717.69	34217.46
717.88	34061.82
718.06	34469.36
718.25	34258.42
718.44	33897.98
718.63	34035.19
718.82	33771.00
719.00	33662.46
719.19	33848.83
719.38	34010.62
719.57	33562.11
719.76	33441.28
719.94	33385.99
720.13	33580.54
720.32	33392.13
720.51	33404.42
720.69	33353.22
720.88	33416.71
721.07	33435.14
721.26	32972.30
721.44	33379.84
721.63	33091.08
721.82	33113.61
722.01	33007.11
722.20	33404.42
722.38	33027.59
722.57	32826.89
722.76	32980.49
722.95	33080.84
723.13	32642.57
723.32	32765.45
723.51	32497.17
723.70	32527.89
723.88	33017.35
724.07	32394.77
724.26	32640.53
724.44	32284.18
724.63	32321.04
724.82	32220.69
725.01	32400.91
725.19	32157.21
725.38	32073.24
725.57	32024.09
725.76	32128.53
725.94	31673.88
726.13	31880.73
726.32	31933.98
726.51	31841.82
726.69	32237.08
726.88	31907.35
727.07	32318.99
727.25	31854.11
727.44	32079.38
727.63	32210.45
727.82	32079.38
728.00	31927.83
728.19	31745.56
728.38	31921.69
728.56	31761.95
728.75	31972.89
728.94	31925.78
729.12	31716.89
729.31	31557.15
729.50	31667.74
729.69	31987.22
729.87	31809.05
730.06	31804.95
730.25	32007.70
730.43	31948.31
730.62	31286.82
730.81	31659.55
730.99	31720.99
731.18	32003.61
731.37	31649.31
731.55	31579.68
731.74	31669.79
731.93	31694.36
732.11	31835.67
732.30	31512.10
732.49	31307.30
732.67	31477.28
732.86	31458.85
733.05	31338.02
733.23	31129.12
733.42	31567.39
733.61	31211.04
733.79	31305.25
733.98	31317.54
734.17	31106.60
734.35	31247.91
734.54	31319.59
734.73	31172.13
734.91	31139.36
735.10	31051.30
735.29	31350.31
735.47	30596.65
735.66	30813.74
735.84	31022.63
736.03	30793.26
736.22	30785.07
736.40	30658.09
736.59	30803.50
736.78	30735.92
736.96	30963.24
737.15	30705.20
737.33	30615.08
737.52	30766.63
737.71	30645.80
737.89	30721.58
738.08	30473.78
738.27	30625.32
738.45	30969.38
738.64	30733.87
738.82	30703.15
739.01	30535.21
739.20	30506.54
739.38	30318.13
739.57	30402.10
739.75	30584.37
739.94	30289.46
740.13	30647.85
740.31	30146.10
740.50	30260.79
740.68	30381.62
740.87	30201.40
741.06	30567.98
741.24	30340.66
741.43	30070.33
741.61	30395.95
741.80	29812.28
741.99	30033.46
742.17	30037.56
742.36	30012.98
742.54	30021.17
742.73	29933.11
742.91	30010.93
743.10	30017.08
743.29	29896.25
743.47	29918.78
743.66	29914.68
743.84	29695.55
744.03	29824.57
744.21	29621.82
744.40	29953.59
744.59	29814.33
744.77	29906.49
744.96	29869.62
745.14	29724.22
745.33	29699.64
745.51	29470.27
745.70	29574.72
745.88	29158.98
746.07	29488.70
746.26	29376.06
746.44	29355.58
746.63	29443.65
746.81	29408.83
747.00	29290.05
747.18	29488.70
747.37	29302.34
747.55	29427.26
747.74	29656.64
747.92	29095.49
748.11	29185.60
748.29	29257.28
748.48	29484.61
748.66	29052.48
748.85	29263.43
749.03	28919.37
749.22	28905.03
749.41	29212.23
749.59	29232.71
749.78	28470.86
749.96	28823.11
750.15	28866.12
750.33	29087.30
750.52	28700.23
750.70	29017.67
750.89	28563.02
751.07	28599.88
751.26	28835.40
751.44	28939.85
751.63	28315.22
751.81	28550.73
752.00	28472.91
752.18	28700.23
752.37	28638.80
752.55	28511.82
752.74	28472.91
752.92	28536.40
753.10	28321.36
753.29	28677.71
753.47	28190.29
753.66	28227.15
753.84	28212.82
754.03	27887.19
754.21	27979.35
754.40	28153.43
754.58	28169.81
754.77	27928.15
754.95	28130.90
755.14	28180.05
755.32	28487.25
755.51	28024.40
755.69	27934.29
755.88	27922.01
756.06	27928.15
756.24	27868.76
756.43	27965.01
756.61	27813.46
756.80	27733.59
756.98	27387.49
757.17	27965.01
757.35	27813.46
757.54	28120.66
757.72	27850.33
757.90	27534.94
758.09	27266.66
758.27	27459.16
758.46	27778.65
758.64	27493.98
758.83	27702.87
759.01	27037.28
759.19	27663.96
759.38	27479.64
759.56	27373.15
759.75	27373.15
759.93	27158.11
760.12	27280.99
760.30	27311.71
760.48	27299.42
760.67	27047.52
760.85	27401.82
761.04	27287.14
761.22	27227.74
761.40	27111.01
761.59	27147.87
761.77	26934.88
761.96	27084.39
762.14	26764.90
762.32	26785.38
762.51	26756.71
762.69	26895.97
762.88	26801.77
763.06	27010.66
763.24	26959.46
763.43	26697.32
763.61	26812.01
763.80	26828.39
763.98	26586.73
764.16	26891.88
764.35	26414.70
764.53	26119.79
764.72	26330.73
764.90	26506.86
765.08	26445.42
765.27	26398.32
765.45	26158.70
765.63	26017.40
765.82	26320.49
766.00	26144.37
766.18	26121.84
766.37	26152.56
766.55	26138.23
766.74	26185.33
766.92	26263.15
767.10	26209.90
767.29	26019.44
767.47	25978.48
767.65	26193.52
767.84	26023.54
768.02	25933.43
768.20	25618.04
768.39	26039.92
768.57	25706.10
768.75	25704.06
768.94	25796.21
769.12	25947.76
769.30	25529.98
769.49	25824.89
769.67	25327.23
769.85	25310.85
770.04	25585.27
770.22	25261.69
770.40	25380.48
770.59	25353.85
770.77	25681.53
770.95	25443.96
771.14	24972.93
771.32	25140.86
771.50	25384.57
771.69	25380.48
771.87	25499.26
772.05	25450.11
772.24	25214.59
772.42	24956.55
772.60	25218.69
772.78	25024.13
772.97	24938.12
773.15	24972.93
773.33	24958.60
773.52	24682.12
773.70	24925.83
773.88	24960.64
774.07	24798.85
774.25	24850.05
774.43	24856.20
774.61	24895.11
774.80	25052.80
774.98	24833.67
775.16	24913.54
775.34	25007.75
775.53	24671.88
775.71	24798.85
775.89	25071.23
776.08	24854.15
776.26	24923.78
776.44	24761.99
776.62	24630.92
776.81	24925.83
776.99	24872.58
777.17	25007.75
777.35	25171.58
777.54	24891.01
777.72	24501.90
777.90	24520.33
778.08	25280.13
778.27	25099.90
778.45	25138.82
778.63	25122.43
778.81	24819.33
779.00	25171.58
779.18	24819.33
779.36	25202.30
779.54	25063.04
779.73	25142.91
779.91	25200.26
780.09	25323.13
780.27	25142.91
780.46	25306.75
780.64	25265.79
780.82	25161.34
781.00	24888.96
781.19	24919.68
781.37	25138.82
781.55	25179.78
781.73	25239.17
781.91	25228.93
782.10	25101.95
782.28	25230.98
782.46	25327.23
782.64	25566.84
782.82	25190.02
783.01	25439.87
783.19	25454.20
783.37	25089.67
783.55	25198.21
783.74	25200.26
783.92	25110.14
784.10	25484.92
784.28	25077.38
784.46	25093.76
784.64	25085.57
784.83	25081.47
785.01	25439.87
785.19	25235.07
785.37	25206.40
785.55	24782.47
785.74	24954.50
785.92	24782.47
786.10	24919.68
786.28	24917.64
786.46	24981.12
786.64	24884.87
786.83	25169.54
787.01	25091.71
787.19	24897.16
787.37	24768.13
787.55	24946.31
787.74	24737.41
787.92	24858.24
788.10	24579.72
788.28	24422.03
788.46	24841.86
788.64	24409.74
788.82	24563.34
789.01	24628.87
789.19	24544.91
789.37	24413.84
789.55	24458.89
789.73	24237.71
789.91	24321.68
790.09	24123.02
790.28	24329.87
790.46	24352.40
790.64	24299.15
790.82	24075.92
791.00	23977.62
791.18	23864.98
791.36	23891.60
791.55	24053.39
791.73	24131.22
791.91	23834.26
792.09	23879.32
792.27	24022.67
792.45	23692.95
792.63	23801.49
792.81	23678.61
793.00	23905.94
793.18	23283.36
793.36	23672.47
793.54	23465.63
793.72	23512.73
793.90	23404.19
794.08	23193.25
794.26	23305.88
794.44	23047.84
794.62	23088.80
794.81	23279.26
794.99	22816.42
795.17	23019.17
795.35	22888.10
795.53	23025.31
795.71	23148.19
795.89	22828.71
796.07	22679.21
796.25	22595.24
796.43	22777.51
796.61	22597.29
796.80	22423.21
796.98	22832.80
797.16	22470.31
797.34	22556.33
797.52	22263.47
797.70	22568.62
797.88	22486.70
798.06	22300.33
798.24	22480.55
798.42	22046.38
798.60	22007.47
798.78	21974.70
798.96	22042.29
799.14	21915.31
799.32	22148.78
799.51	21659.32
799.69	22075.06
799.87	21669.56
800.05	21704.37
800.23	21483.19
800.41	21655.22
800.59	21751.48
800.77	21618.36
800.95	21491.38
801.13	21356.22
801.31	21313.21
801.49	21358.27
801.67	21243.58
801.85	21237.44
802.03	21069.50
802.21	21018.30
802.39	21231.29
802.57	21049.02
802.75	20840.13
802.93	21126.85
803.11	20795.07
803.29	20582.09
803.47	20729.54
803.65	20817.60
803.83	20661.96
804.01	20590.28
804.19	20561.61
804.37	20811.46
804.55	20627.14
804.73	20545.22
804.91	20543.17
805.09	20428.49
805.27	20326.09
805.45	20383.43
805.63	20287.18
805.81	20235.98
805.99	20410.06
806.17	20039.37
806.35	19973.84
806.53	20080.33
806.71	20037.33
806.89	20016.85
807.07	19898.06
807.25	20037.33
807.43	19818.19
807.61	19781.33
807.79	19904.21
807.97	19441.37
808.15	19709.65
808.33	19517.14
808.51	19531.48
808.69	19599.06
808.87	19517.14
809.05	19482.33
809.23	19461.85
809.41	19160.80
809.59	19304.15
809.77	19363.54
809.95	19255.00
810.13	19252.95
810.31	19234.52
810.49	19295.96
810.67	19076.83
810.84	18865.89
811.02	19121.88
811.20	18876.13
811.38	19336.92
811.56	18958.05
811.74	18902.75
811.92	18773.73
812.10	18882.27
812.28	18978.53
812.46	18800.35
812.64	18587.36
812.82	18624.23
813.00	18499.30
813.18	18380.52
813.36	18534.12
813.53	18511.59
813.71	18454.25
813.89	18525.93
814.07	18450.15
814.25	18401.00
814.43	18284.26
814.61	18243.31
814.79	18169.58
814.97	18108.14
815.15	18247.40
815.33	18208.49
815.50	17731.31
815.68	18149.10
815.86	18071.28
816.04	17989.36
816.22	18222.83
816.40	17811.18
816.58	17950.45
816.76	17884.91
816.94	17637.11
817.11	17766.13
817.29	17923.82
817.47	17608.44
817.65	17481.46
817.83	17641.20
818.01	17479.41
818.19	17284.86
818.37	17794.80
818.54	17342.20
818.72	17266.42
818.90	17565.43
819.08	17200.89
819.26	17368.82
819.44	17202.94
819.62	17389.30
819.80	17118.97
819.97	17338.10
820.15	17176.31
820.33	17008.38
820.51	17272.57
820.69	17051.39
820.87	17151.74
821.05	17354.49
821.22	17178.36
821.40	17088.25
821.58	16705.28
821.76	16809.73
821.94	16867.07
822.12	16664.32
822.29	17045.24
822.47	16621.31
822.65	17022.72
822.83	16824.06
823.01	16742.14
823.19	16727.81
823.36	16715.52
823.54	16660.23
823.72	16477.96
823.90	16553.73
824.08	16377.61
824.25	16692.99
824.43	16422.66
824.61	16170.76
824.79	16551.68
824.97	16461.57
825.15	16252.68
825.32	16254.73
825.50	16176.91
825.68	16406.28
825.86	16365.32
826.04	16310.02
826.21	16297.74
826.39	16072.46
826.57	16152.33
826.75	16131.85
826.93	16064.27
827.10	16004.88
827.28	15879.95
827.46	15990.54
827.64	16039.69
827.81	15867.66
827.99	15902.48
828.17	15918.86
828.35	15660.82
828.53	15838.99
828.70	15879.95
828.88	15857.42
829.06	15871.76
829.24	15961.87
829.41	15820.56
829.59	15757.07
829.77	15515.41
829.95	16051.98
830.12	15795.98
830.30	15980.30
830.48	15550.23
830.66	15609.62
830.84	15535.89
831.01	15482.64
831.19	15605.52
831.37	15482.64
831.55	15312.66
831.72	15236.89
831.90	15298.33
832.08	15116.06
832.25	15247.13
832.43	15433.49
832.61	15073.05
832.79	14944.03
832.96	15181.59
833.14	14993.18
833.32	15331.09
833.50	15234.84
833.67	15124.25
833.85	15167.26
834.03	15030.04
834.20	15077.15
834.38	15132.44
834.56	15163.16
834.74	14946.08
834.91	15040.28
835.09	14911.26
835.27	14894.88
835.44	14769.95
835.62	14839.58
835.80	14552.87
835.98	14884.64
836.15	14681.89
836.33	14796.57
836.51	14888.73
836.68	14720.80
836.86	14769.95
837.04	15011.61
837.21	14602.02
837.39	14548.77
837.57	14606.11
837.75	14393.12
837.92	14399.27
838.10	14425.89
838.28	14247.72
838.45	14710.56
838.63	14313.25
838.81	14544.67
838.98	14262.05
839.16	14362.40
839.34	14346.02
839.51	14317.35
839.69	14128.94
839.87	14190.38
840.04	14262.05
840.22	14286.63
840.40	14042.92
840.57	14106.41
840.75	14083.88
840.93	13977.39
841.10	13991.72
841.28	14335.78
841.46	14247.72
841.63	14124.84
841.81	14094.12
841.98	14141.22
842.16	13942.57
842.34	13819.69
842.51	13905.71
842.69	13846.32
842.87	13969.19
843.04	14063.40
843.22	13911.85
843.40	13942.57
843.57	13987.63
843.75	13893.42
843.92	13786.93
844.10	13825.84
844.28	13780.78
844.45	13844.27
844.63	13903.66
844.81	13621.04
844.98	13745.97
845.16	13602.61
845.33	13502.26
845.51	13668.14
845.69	13575.98
845.86	13440.82
846.04	13385.52
846.21	13432.63
846.39	13616.94
846.57	13567.79
846.74	13588.27
846.92	13498.16
847.09	13549.36
847.27	13236.02
847.45	13575.98
847.62	13393.72
847.80	13373.24
847.97	13516.59
848.15	13410.10
848.32	13297.46
848.50	13184.82
848.68	13258.55
848.85	13229.88
849.03	13066.04
849.20	13463.35
849.38	13139.77
849.56	13416.24
849.73	13129.53
849.91	13107.00
850.08	13156.15
850.26	13229.88
850.43	13104.95
850.61	13145.91
850.78	12883.77
850.96	12906.30
851.14	12703.55
851.31	12996.41
851.49	12957.50
851.66	12769.09
851.84	12752.70
852.01	12873.53
852.19	12732.22
852.36	13014.84
852.54	12717.89
852.71	12918.59
852.89	12750.65
853.07	12787.52
853.24	13020.99
853.42	12779.32
853.59	12644.16
853.77	12898.11
853.94	12640.06
854.12	12728.13
854.29	12662.59
854.47	12547.90
854.64	12638.02
854.82	12570.43
854.99	12922.68
855.17	12582.72
855.34	12347.20
855.52	12705.60
855.69	12416.83
855.87	12560.19
856.04	12476.23
856.22	12521.28
856.39	12502.85
856.57	12578.62
856.74	12375.88
856.92	12490.56
857.09	12320.58
857.27	12375.88
857.44	12435.27
857.62	12351.30
857.79	12224.33
857.97	12300.10
858.14	12209.99
858.32	12371.78
858.49	12322.63
858.67	12316.48
858.84	12332.87
859.02	12455.75
859.19	12154.69
859.37	12222.28
859.54	12068.68
859.72	12005.19
859.89	12037.96
860.06	12242.76
860.24	11935.56
860.41	12220.23
860.59	11939.66
860.76	12046.15
860.94	11765.58
861.11	11874.12
861.29	11812.68
861.46	11788.11
861.64	11698.00
861.81	11953.99
861.98	11988.81
862.16	11824.97
862.33	11923.27
862.51	11900.75
862.68	11773.77
862.86	11439.95
863.03	11638.61
863.21	11657.04
863.38	11730.76
863.55	11677.52
863.73	11659.09
863.90	11810.64
864.08	11792.20
864.25	11429.71
864.43	11667.28
864.60	11634.51
864.77	11544.40
864.95	11556.69
865.12	11497.30
865.30	11417.43
865.47	11327.32
865.64	11431.76
865.82	11499.34
865.99	11505.49
866.17	11462.48
866.34	11509.58
866.51	11208.53
866.69	11620.17
866.86	11329.36
867.04	11241.30
867.21	11513.68
867.38	11263.83
867.56	11253.59
867.73	11122.52
867.91	11167.57
868.08	11206.48
868.25	11188.05
868.43	11272.02
868.60	11077.46
868.78	11202.39
868.95	11147.09
869.12	11065.18
869.30	11075.42
869.47	11192.15
869.64	10919.77
869.82	10889.05
869.99	11052.89
870.16	10983.26
870.34	11132.76
870.51	11069.27
870.69	10794.84
870.86	10805.08
871.03	11034.46
871.21	10723.16
871.38	10682.20
871.55	10547.04
871.73	10692.44
871.90	10655.58
872.07	10542.94
872.25	10559.33
872.42	10749.79
872.59	10551.14
872.77	10682.20
872.94	10487.65
873.11	10483.55
873.29	10436.45
873.46	10268.52
873.63	10520.42
873.81	10635.10
873.98	10340.19
874.15	10338.15
874.33	10372.96
874.50	10317.67
874.67	10450.78
874.85	10258.28
875.02	10334.05
875.19	10082.15
875.37	10215.27
875.54	10004.33
875.71	10192.74
875.88	10053.48
876.06	10301.28
876.23	10131.30
876.40	10088.29
876.58	10018.66
876.75	9981.80
876.92	10041.19
877.10	9944.94
877.27	10069.86
877.44	9891.69
877.61	9918.31
877.79	9824.11
877.96	9840.49
878.13	9807.72
878.31	9762.67
878.48	9799.53
878.65	9723.76
878.82	9867.11
879.00	9645.93
879.17	9697.13
879.34	9713.52
879.51	9842.54
879.69	9889.64
879.86	9627.50
880.03	9629.55
880.21	9480.05
880.38	9676.65
880.55	9602.93
880.72	9588.59
880.90	9777.00
881.07	9586.54
881.24	9881.45
881.41	9498.48
881.59	9586.54
881.76	9557.87
881.93	9480.05
882.10	9465.71
882.28	9475.95
882.45	9535.34
882.62	9365.36
882.79	9508.72
882.96	9234.29
883.14	9287.54
883.31	9473.90
883.48	9262.96
883.65	9260.91
883.83	9502.58
884.00	9351.03
884.17	9240.44
884.34	9447.28
884.51	9291.63
884.69	9135.99
884.86	9308.02
885.03	9062.26
885.20	9199.48
885.38	9305.97
885.55	9146.23
885.72	8933.24
885.89	9234.29
886.06	9148.28
886.24	9033.59
886.41	9183.09
886.58	9154.42
886.75	9275.25
886.92	9056.12
887.10	9140.08
887.27	9105.27
887.44	9158.52
887.61	9097.08
887.78	9277.30
887.95	9099.13
888.13	8937.34
888.30	9068.41
888.47	8912.76
888.64	9072.50
888.81	8920.95
888.99	9047.93
889.16	8834.94
889.33	8857.46
889.50	8830.84
889.67	8894.33
889.84	8785.79
890.01	8918.90
890.19	8683.39
890.36	8886.14
890.53	8779.64
890.70	8736.63
890.87	8843.13
891.04	8769.40
891.22	8867.70
891.39	8638.33
891.56	8736.63
891.73	8677.24
891.90	8650.62
892.07	8632.19
892.24	8646.52
892.42	8527.74
892.59	8503.17
892.76	8658.81
892.93	8525.69
893.10	8742.78
893.27	8660.86
893.44	8603.52
893.61	8402.82
893.79	8499.07
893.96	8525.69
894.13	8497.02
894.30	8501.12
894.47	8566.65
894.64	8490.88
894.81	8339.33
894.98	8554.37
895.15	8673.15
895.33	8376.19
895.50	8357.76
895.67	8482.69
895.84	8411.01
896.01	8347.52
896.18	8419.20
896.35	8443.78
896.52	8333.18
896.69	8292.23
896.86	8359.81
897.04	8345.47
897.21	8449.92
897.38	8413.06
897.55	8361.86
897.72	8206.21
897.89	8456.06
898.06	8331.14
898.23	8404.86
898.40	8363.90
898.57	8404.86
898.74	8310.66
898.91	8454.02
899.08	8234.88
899.26	8470.40
899.43	8408.96
899.60	8275.84
899.77	8200.07
899.94	8183.68
900.11	8374.14
900.28	8238.98
900.45	8122.24
900.62	8218.50
900.79	8288.13
900.96	8245.12
901.13	8202.11
901.30	8224.64
901.47	8257.41
901.64	8216.45
901.81	8255.36
901.98	8298.37
902.15	8470.40
902.32	8087.43
902.49	8185.73
902.66	8089.48
902.83	8128.39
903.01	8257.41
903.18	8294.27
903.35	8181.64
903.52	8130.44
903.69	8261.51
903.86	7989.13
904.03	8157.06
904.20	8288.13
904.37	8226.69
904.54	8267.65
904.71	8150.92
904.88	8052.61
905.05	8095.62
905.22	8062.85
905.39	8122.24
905.56	8015.75
905.73	8040.33
905.90	8112.00
906.07	8159.11
906.24	8093.57
906.41	8152.96
906.58	8073.09
906.75	8118.15
906.92	8069.00
907.09	8275.84
907.26	8083.33
907.43	8099.72
907.60	8081.28
907.77	8134.53
907.93	8109.96
908.10	8009.61
908.27	8015.75
908.44	8019.85
908.61	7976.84
908.78	7948.17
908.95	8056.71
909.12	7917.45
909.29	8028.04
909.46	7903.11
909.63	8038.28
909.80	7954.31
909.97	8017.80
910.14	8025.99
910.31	7915.40
910.48	8109.96
910.65	8152.96
910.82	7987.08
910.99	7966.60
911.16	7890.82
911.33	8091.52
911.50	7939.97
911.66	7860.10
911.83	7880.58
912.00	7909.26
912.17	7718.79
912.34	7718.79
912.51	7686.03
912.68	7804.81
912.85	7686.03
913.02	7741.32
913.19	7688.07
913.36	7833.48
913.53	7706.51
913.70	7624.59
913.86	7647.12
914.03	7487.37
914.20	7776.14
914.37	7622.54
914.54	7698.31
914.71	7657.36
914.88	7509.90
915.05	7460.75
915.22	7516.05
915.39	7497.61
915.55	7534.48
915.72	7520.14
915.89	7554.96
916.06	7444.37
916.23	7468.94
916.40	7241.62
916.57	7323.54
916.74	7473.04
916.91	7233.43
917.07	7282.58
917.24	7247.76
917.41	7452.56
917.58	7282.58
917.75	7415.69
917.92	7180.18
918.09	7178.13
918.26	7186.32
918.42	7274.38
918.59	7157.65
918.76	7083.92
918.93	7079.83
919.10	7178.13
919.27	7010.20
919.44	7022.48
919.60	7094.16
919.77	7022.48
919.94	6926.23
920.11	6915.99
920.28	7157.65
920.45	6973.33
920.61	6838.17
920.78	6977.43
920.95	6805.40
921.12	6721.43
921.29	6860.70
921.46	6746.01
921.62	6682.52
921.79	6725.53
921.96	6752.15
922.13	6819.74
922.30	6682.52
922.47	6539.16
922.63	6717.34
922.80	6709.15
922.97	6557.60
923.14	6514.59
923.31	6608.80
923.47	6487.96
923.64	6606.75
923.81	6487.96
923.98	6471.58
924.15	6350.75
924.32	6500.25
924.48	6526.88
924.65	6365.09
924.82	6330.27
924.99	6191.01
925.15	6379.42
925.32	6332.32
925.49	6334.37
925.66	6274.98
925.83	6231.97
925.99	6053.80
926.16	6137.76
926.33	6193.06
926.50	6107.04
926.67	6137.76
926.83	6137.76
927.00	6145.95
927.17	6029.22
927.34	5949.35
927.50	6012.84
927.67	6100.90
927.84	5928.87
928.01	5996.45
928.17	5984.16
928.34	5855.14
928.51	5750.70
928.68	5820.33
928.84	5830.57
929.01	5762.98
929.18	5638.06
929.35	5791.66
929.51	5762.98
929.68	5662.63
929.85	5773.22
930.02	5564.33
930.18	5668.78
930.35	5580.71
930.52	5515.18
930.69	5670.83
930.85	5590.95
931.02	5470.12
931.19	5463.98
931.36	5380.01
931.52	5433.26
931.69	5531.56
931.86	5343.15
932.02	5244.85
932.19	5242.80
932.36	5310.38
932.53	5353.39
932.69	5222.32
932.86	5294.00
933.03	5246.90
933.19	5025.72
933.36	5091.25
933.53	5132.21
933.70	5038.00
933.86	5048.24
934.03	5111.73
934.20	5062.58
934.36	5042.10
934.53	4951.99
934.70	4825.01
934.86	4845.49
935.03	4767.67
935.20	4757.43
935.36	4747.19
935.53	4695.99
935.70	4650.94
935.86	4759.48
936.03	4628.41
936.20	4556.73
936.36	4521.92
936.53	4573.11
936.70	4581.31
936.86	4562.87
937.03	4501.44
937.20	4429.76
937.36	4396.99
937.53	4200.38
937.70	4272.06
937.86	4298.69
938.03	4253.63
938.20	4181.95
938.36	4128.70
938.53	4272.06
938.70	4046.79
938.86	4102.08
939.03	4005.83
939.20	3938.24
939.36	3968.96
939.53	4005.83
939.70	3928.00
939.86	3805.13
940.03	3854.28
940.19	3721.16
940.36	3698.63
940.53	3657.67
940.69	3749.83
940.86	3698.63
941.03	3600.33
941.19	3508.17
941.36	3481.55
941.52	3563.47
941.69	3551.18
941.86	3565.51
942.02	3461.07
942.19	3530.70
942.35	3454.92
942.52	3379.15
942.69	3434.44
942.85	3358.67
943.02	3295.18
943.18	3297.23
943.35	3260.37
943.52	3219.41
943.68	3250.13
943.85	3243.98
944.01	3108.82
944.18	3235.79
944.35	3149.78
944.51	3203.02
944.68	3192.78
944.84	3127.25
945.01	3213.26
945.17	3174.35
945.34	3114.96
945.51	3020.75
945.67	3131.34
945.84	3121.10
946.00	3033.04
946.17	3108.82
946.33	3018.71
946.50	3063.76
946.67	3096.53
946.83	2955.22
947.00	2983.89
947.16	2940.88
947.33	3033.04
947.49	3022.80
947.66	2944.98
947.82	3010.51
947.99	2967.51
948.16	2981.84
948.32	2953.17
948.49	2996.18
948.65	2877.40
948.82	3016.66
948.98	2901.97
949.15	2930.64
949.31	2938.84
949.48	3123.15
949.64	2963.41
949.81	2971.60
949.97	2994.13
950.14	2926.55
950.30	2883.54
950.47	2910.16
950.63	2918.36
950.80	2893.78
950.96	2885.59
951.13	2873.30
951.30	2883.54
951.46	2930.64
951.63	2908.12
951.79	2865.11
951.96	2895.83
952.12	2947.03
952.29	2967.51
952.45	2969.55
952.62	2922.45
952.78	2904.02
952.94	2934.74
953.11	2914.26
953.27	2865.11
953.44	2932.69
953.60	2852.82
953.77	2875.35
953.93	2953.17
954.10	2897.88
954.26	2818.00
954.43	2887.64
954.59	2942.93
954.76	2949.08
954.92	2934.74
955.09	2861.01
955.25	2883.54
955.42	2781.14
955.58	2899.92
955.75	2938.84
955.91	2828.24
956.07	2875.35
956.24	2877.40
956.40	2783.19
956.57	2883.54
956.73	2793.43
956.90	2920.40
957.06	2805.72
957.23	2822.10
957.39	2803.67
957.56	2824.15
957.72	2656.22
957.88	2789.33
958.05	2828.24
958.21	2992.08
958.38	2926.55
958.54	2834.39
958.71	2858.96
958.87	2822.10
959.03	2818.00
959.20	2832.34
959.36	2842.58
959.53	2889.68
959.69	2799.57
959.85	2897.88
960.02	2723.80
960.18	2815.96
960.35	2789.33
960.51	2779.09
960.68	2748.37
960.84	2779.09
961.00	2736.09
961.17	2783.19
961.33	2779.09
961.50	2777.05
961.66	2660.31
961.82	2686.94
961.99	2709.46
962.15	2674.65
962.31	2727.89
962.48	2787.29
962.64	2643.93
962.81	2752.47
962.97	2729.94
963.13	2721.75
963.30	2705.37
963.46	2682.84
963.62	2627.54
963.79	2641.88
963.95	2766.81
964.12	2764.76
964.28	2785.24
964.44	2635.74
964.61	2768.85
964.77	2715.61
964.93	2709.46
965.10	2693.08
965.26	2705.37
965.42	2629.59
965.59	2629.59
965.75	2674.65
965.92	2658.26
966.08	2705.37
966.24	2648.02
966.41	2637.78
966.57	2631.64
966.73	2572.25
966.90	2688.98
967.06	2633.69
967.22	2621.40
967.39	2715.61
967.55	2660.31
967.71	2691.03
967.88	2602.97
968.04	2598.87
968.20	2578.39
968.37	2559.96
968.53	2564.06
968.69	2586.58
968.85	2709.46
969.02	2686.94
969.18	2605.02
969.34	2654.17
969.51	2666.46
969.67	2668.50
969.83	2527.19
970.00	2648.02
970.16	2590.68
970.32	2578.39
970.48	2736.09
970.65	2592.73
970.81	2639.83
970.97	2580.44
971.14	2535.39
971.30	2639.83
971.46	2455.51
971.63	2568.15
971.79	2682.84
971.95	2551.77
972.11	2459.61
972.28	2547.67
972.44	2576.34
972.60	2510.81
972.76	2584.54
972.93	2539.48
973.09	2605.02
973.25	2547.67
973.42	2508.76
973.58	2539.48
973.74	2531.29
973.90	2508.76
974.07	2400.22
974.23	2502.62
974.39	2469.85
974.55	2539.48
974.72	2430.94
974.88	2496.47
975.04	2432.99
975.20	2422.75
975.37	2519.00
975.53	2465.75
975.69	2381.79
975.85	2449.37
976.01	2441.18
976.18	2439.13
976.34	2430.94
976.50	2486.23
976.66	2408.41
976.83	2490.33
976.99	2490.33
977.15	2449.37
977.31	2430.94
977.47	2545.63
977.64	2439.13
977.80	2453.47
977.96	2465.75
978.12	2441.18
978.29	2494.43
978.45	2496.47
978.61	2404.32
978.77	2381.79
978.93	2467.80
979.10	2437.08
979.26	2410.46
979.42	2373.60
979.58	2375.64
979.74	2363.36
979.91	2332.64
980.07	2316.25
980.23	2428.89
980.39	2383.84
980.55	2363.36
980.71	2404.32
980.88	2406.36
981.04	2441.18
981.20	2346.97
981.36	2361.31
981.52	2344.92
981.68	2410.46
981.85	2379.74
982.01	2293.72
982.17	2201.57
982.33	2295.77
982.49	2392.03
982.65	2381.79
982.82	2400.22
982.98	2353.12
983.14	2353.12
983.30	2426.84
983.46	2336.73
983.62	2318.30
983.79	2269.15
983.95	2217.95
984.11	2242.53
984.27	2299.87
984.43	2353.12
984.59	2291.68
984.75	2297.82
984.91	2277.34
985.08	2369.50
985.24	2297.82
985.40	2228.19
985.56	2271.20
985.72	2260.96
985.88	2281.44
986.04	2324.44
986.20	2252.77
986.37	2260.96
986.53	2252.77
986.69	2334.68
986.85	2283.49
987.01	2271.20
987.17	2320.35
987.33	2224.09
987.49	2238.43
987.65	2179.04
987.82	2271.20
987.98	2193.37
988.14	2230.24
988.30	2285.53
988.46	2183.13
988.62	2295.77
988.78	2176.99
988.94	2123.74
989.10	2142.18
989.26	2193.37
989.42	2232.29
989.59	2279.39
989.75	2172.89
989.91	2271.20
990.07	2203.61
990.23	2183.13
990.39	2142.18
990.55	2185.18
990.71	2099.17
990.87	2160.61
991.03	2131.94
991.19	2142.18
991.35	2129.89
991.51	2150.37
991.67	2205.66
991.83	2181.09
992.00	2150.37
992.16	2240.48
992.32	2152.42
992.48	2189.28
992.64	2140.13
992.80	2207.71
992.96	2078.69
993.12	2232.29
993.28	2138.08
993.44	2133.98
993.60	2166.75
993.76	2144.22
993.92	2181.09
994.08	2183.13
994.24	2111.46
994.40	2138.08
994.56	2103.26
994.72	2246.62
994.88	2142.18
995.04	2138.08
995.20	2113.50
995.36	2121.70
995.52	2136.03
995.68	2117.60
995.84	2095.07
996.00	2195.42
996.16	2095.07
996.32	2154.46
996.48	2105.31
996.64	2121.70
996.80	2058.21
996.96	2095.07
997.12	2131.94
997.28	2113.50
997.44	2021.35
997.60	2068.45
997.76	2029.54
997.92	2090.98
998.08	2119.65
998.24	2103.26
998.40	2146.27
998.56	2031.58
998.72	2043.87
998.88	2064.35
999.04	2078.69
999.20	2045.92
999.36	1968.10
999.52	2123.74
999.68	2015.20
999.84	2058.21
1000.00	2093.02
1000.16	2056.16
1000.32	2021.35
1000.48	1980.39
1000.64	1931.23
1000.80	2029.54
1000.95	1972.19
1001.11	1959.91
1001.27	1945.57
1001.43	2101.22
1001.59	1996.77
1001.75	2002.91
1001.91	2019.30
1002.07	1908.71
1002.23	2062.30
1002.39	1986.53
1002.55	2027.49
1002.71	2027.49
1002.87	2027.49
1003.03	1912.80
1003.19	1996.77
1003.34	1996.77
1003.50	1943.52
1003.66	1943.52
1003.82	2054.11
1003.98	1986.53
1004.14	2072.54
1004.30	1959.91
1004.46	1961.95
1004.62	1972.19
1004.78	2013.15
1004.94	1980.39
1005.09	1982.43
1005.25	1988.58
1005.41	1918.95
1005.57	1947.62
1005.73	1920.99
1005.89	1869.80
1006.05	1992.67
1006.21	1918.95
1006.37	1966.05
1006.52	1884.13
1006.68	1951.71
1006.84	2002.91
1007.00	1931.23
1007.16	1972.19
1007.32	1884.13
1007.48	1898.47
1007.64	1957.86
1007.79	1982.43
1007.95	1884.13
1008.11	1923.04
1008.27	1880.04
1008.43	1894.37
1008.59	1945.57
1008.75	1931.23
1008.91	1949.67
1009.06	1925.09
1009.22	1996.77
1009.38	2041.82
1009.54	1957.86
1009.70	1959.91
1009.86	1884.13
1010.01	1886.18
1010.17	1853.41
1010.33	1949.67
1010.49	1884.13
1010.65	1896.42
1010.81	1939.43
1010.96	1929.19
1011.12	1890.28
1011.28	1880.04
1011.44	1914.85
1011.60	1896.42
1011.76	1834.98
1011.91	1888.23
1012.07	1863.65
1012.23	1789.92
1012.39	1853.41
1012.55	1906.66
1012.71	1853.41
1012.86	1828.84
1013.02	1861.60
1013.18	1812.45
1013.34	1830.88
1013.50	1910.75
1013.65	1902.56
1013.81	1880.04
1013.97	1877.99
1014.13	1886.18
1014.29	1892.32
1014.44	1898.47
1014.60	1873.89
1014.76	1888.23
1014.92	1894.37
1015.07	1929.19
1015.23	1789.92
1015.39	1771.49
1015.55	1816.55
1015.71	1761.25
1015.86	1847.27
1016.02	1841.12
1016.18	1816.55
1016.34	1765.35
1016.49	1869.80
1016.65	1902.56
1016.81	1841.12
1016.97	1939.43
1017.12	1898.47
1017.28	1804.26
1017.44	1783.78
1017.60	1882.08
1017.75	1791.97
1017.91	1847.27
1018.07	1812.45
1018.23	1843.17
1018.38	1755.11
1018.54	1775.59
1018.70	1755.11
1018.86	1769.44
1019.01	1740.77
1019.17	1769.44
1019.33	1859.56
1019.49	1748.97
1019.64	1806.31
1019.80	1787.88
1019.96	1806.31
1020.12	1832.93
1020.27	1816.55
1020.43	1810.40
1020.59	1796.07
1020.74	1791.97
1020.90	1818.60
1021.06	1724.39
1021.22	1816.55
1021.37	1716.20
1021.53	1644.52
1021.69	1787.88
1021.84	1841.12
1022.00	1806.31
1022.16	1751.01
1022.31	1796.07
1022.47	1847.27
1022.63	1718.25
1022.79	1712.10
1022.94	1785.83
1023.10	1863.65
1023.26	1728.49
1023.41	1708.01
1023.57	1826.79
1023.73	1787.88
1023.88	1720.29
1024.04	1734.63
1024.20	1738.73
1024.35	1742.82
1024.51	1847.27
1024.67	1753.06
1024.82	1812.45
1024.98	1710.05
1025.14	1714.15
1025.29	1708.01
1025.45	1781.73
1025.61	1744.87
1025.76	1773.54
1025.92	1753.06
1026.08	1779.68
1026.23	1783.78
1026.39	1759.21
1026.55	1755.11
1026.70	1740.77
1026.86	1771.49
1027.02	1826.79
1027.17	1691.62
1027.33	1742.82
1027.48	1824.74
1027.64	1697.77
1027.80	1705.96
1027.95	1726.44
1028.11	1652.71
1028.27	1738.73
1028.42	1656.81
1028.58	1691.62
1028.73	1753.06
1028.89	1636.33
1029.05	1726.44
1029.20	1785.83
>>>>>End Processed Spectral Data<<<<<
