SpectraSuite Data File
++++++++++++++++++++++++++++++++++++
Date: Tue Jun 13 12:03:49 CEST 2017
User: INFO_000
Dark Spectrum Present: No
Reference Spectrum Present: No
Number of Sampled Component Spectra: 1
Spectrometers: USB4H00879
Integration Time (usec): 30000 (USB4H00879)
Spectra Averaged: 1 (USB4H00879)
Boxcar Smoothing: 0 (USB4H00879)
Correct for Electrical Dark: No (USB4H00879)
Strobe/Lamp Enabled: No (USB4H00879)
Correct for Detector Non-linearity: No (USB4H00879)
Correct for Stray Light: No (USB4H00879)
Number of Pixels in Processed Spectrum: 3648
>>>>>Begin Processed Spectral Data<<<<<
345.13	1314.80
345.34	1314.80
345.56	1314.80
345.78	1304.56
345.99	1366.00
346.21	1540.07
346.42	1476.59
346.64	1513.45
346.86	1552.36
347.07	1548.26
347.29	1560.55
347.50	1492.97
347.72	1540.07
347.94	1533.93
348.15	1374.19
348.37	1501.16
348.59	1476.59
348.80	1542.12
349.02	1669.09
349.23	1691.62
349.45	1699.81
349.67	1607.66
349.88	1619.94
350.10	1734.63
350.31	1654.76
350.53	1566.70
350.75	1708.01
350.96	1564.65
351.18	1589.22
351.39	1654.76
351.61	1581.03
351.82	1619.94
352.04	1695.72
352.26	1687.53
352.47	1609.70
352.69	1685.48
352.90	1576.94
353.12	1597.42
353.34	1613.80
353.55	1650.66
353.77	1648.61
353.98	1599.46
354.20	1660.90
354.41	1632.23
354.63	1660.90
354.85	1724.39
355.06	1658.85
355.28	1656.81
355.49	1630.18
355.71	1697.77
355.92	1624.04
356.14	1675.24
356.35	1665.00
356.57	1656.81
356.79	1642.47
357.00	1695.72
357.22	1673.19
357.43	1644.52
357.65	1691.62
357.86	1697.77
358.08	1708.01
358.29	1650.66
358.51	1714.15
358.72	1677.29
358.94	1681.38
359.16	1595.37
359.37	1701.86
359.59	1662.95
359.80	1738.73
360.02	1640.42
360.23	1716.20
360.45	1783.78
360.66	1703.91
360.88	1626.09
361.09	1636.33
361.31	1689.57
361.52	1730.53
361.74	1699.81
361.95	1769.44
362.17	1703.91
362.38	1728.49
362.60	1662.95
362.81	1699.81
363.03	1712.10
363.24	1726.44
363.46	1722.34
363.67	1716.20
363.89	1720.29
364.10	1662.95
364.32	1697.77
364.53	1746.92
364.75	1683.43
364.96	1728.49
365.18	1806.31
365.39	1677.29
365.61	1687.53
365.82	1728.49
366.04	1777.64
366.25	1654.76
366.47	1808.36
366.68	1718.25
366.90	1718.25
367.11	1744.87
367.33	1722.34
367.54	1722.34
367.76	1685.48
367.97	1791.97
368.19	1746.92
368.40	1863.65
368.62	1742.82
368.83	1755.11
369.05	1789.92
369.26	1800.16
369.48	1728.49
369.69	1736.68
369.91	1732.58
370.12	1800.16
370.33	1734.63
370.55	1724.39
370.76	1769.44
370.98	1863.65
371.19	1757.16
371.41	1775.59
371.62	1765.35
371.84	1744.87
372.05	1802.21
372.27	1763.30
372.48	1759.21
372.69	1763.30
372.91	1824.74
373.12	1841.12
373.34	1767.40
373.55	1806.31
373.77	1830.88
373.98	1794.02
374.20	1859.56
374.41	1837.03
374.62	1865.70
374.84	1830.88
375.05	1880.04
375.27	1947.62
375.48	1880.04
375.70	1918.95
375.91	1859.56
376.12	1939.43
376.34	1841.12
376.55	1896.42
376.77	1927.14
376.98	1896.42
377.19	1832.93
377.41	1902.56
377.62	1888.23
377.84	1892.32
378.05	1943.52
378.27	1877.99
378.48	2025.44
378.69	1978.34
378.91	1972.19
379.12	1877.99
379.34	1933.28
379.55	1927.14
379.76	1904.61
379.98	1964.00
380.19	1988.58
380.41	1949.67
380.62	1976.29
380.83	2017.25
381.05	1923.04
381.26	2086.88
381.47	1964.00
381.69	1939.43
381.90	2043.87
382.12	2021.35
382.33	1937.38
382.54	2062.30
382.76	2050.02
382.97	2025.44
383.19	2007.01
383.40	2039.78
383.61	2027.49
383.83	1964.00
384.04	2056.16
384.25	2002.91
384.47	2064.35
384.68	2039.78
384.89	2011.11
385.11	2039.78
385.32	2129.89
385.54	2027.49
385.75	1957.86
385.96	2097.12
386.18	2076.64
386.39	2011.11
386.60	2054.11
386.82	2068.45
387.03	2095.07
387.24	2129.89
387.46	2084.83
387.67	2195.42
387.88	2152.42
388.10	2136.03
388.31	2142.18
388.52	2209.76
388.74	2158.56
388.95	2248.67
389.16	2152.42
389.38	2254.81
389.59	2224.09
389.80	2303.96
390.02	2215.90
390.23	2312.16
390.44	2258.91
390.66	2334.68
390.87	2170.85
391.08	2187.23
391.30	2369.50
391.51	2306.01
391.72	2312.16
391.94	2197.47
392.15	2263.01
392.36	2320.35
392.58	2283.49
392.79	2314.20
393.00	2318.30
393.22	2344.92
393.43	2437.08
393.64	2379.74
393.85	2359.26
394.07	2299.87
394.28	2377.69
394.49	2486.23
394.71	2322.40
394.92	2471.90
395.13	2367.45
395.35	2441.18
395.56	2443.23
395.77	2416.60
395.98	2355.16
396.20	2473.95
396.41	2535.39
396.62	2504.67
396.84	2455.51
397.05	2416.60
397.26	2422.75
397.47	2494.43
397.69	2473.95
397.90	2594.78
398.11	2527.19
398.32	2498.52
398.54	2492.38
398.75	2473.95
398.96	2568.15
399.18	2578.39
399.39	2555.86
399.60	2596.82
399.81	2562.01
400.03	2551.77
400.24	2705.37
400.45	2564.06
400.66	2680.79
400.88	2650.07
401.09	2611.16
401.30	2680.79
401.51	2727.89
401.73	2734.04
401.94	2717.65
402.15	2777.05
402.36	2795.48
402.58	2756.57
402.79	2709.46
403.00	2748.37
403.21	2648.02
403.43	2680.79
403.64	2818.00
403.85	2705.37
404.06	2826.20
404.27	2666.46
404.49	2758.61
404.70	2703.32
404.91	2828.24
405.12	2820.05
405.34	2877.40
405.55	2871.25
405.76	2834.39
405.97	2811.86
406.19	2887.64
406.40	2928.60
406.61	2924.50
406.82	2893.78
407.03	2828.24
407.25	2908.12
407.46	2922.45
407.67	3008.47
407.88	2891.73
408.09	2877.40
408.31	2934.74
408.52	2901.97
408.73	3008.47
408.94	2887.64
409.15	2914.26
409.37	3002.32
409.58	2967.51
409.79	2992.08
410.00	3063.76
410.21	2887.64
410.43	3041.23
410.64	3069.91
410.85	3063.76
411.06	3160.02
411.27	3084.24
411.48	3069.91
411.70	3035.09
411.91	3084.24
412.12	3186.64
412.33	3176.40
412.54	3139.54
412.76	3153.87
412.97	3188.69
413.18	3114.96
413.39	3323.85
413.60	3225.55
413.81	3198.93
414.03	3178.45
414.24	3131.34
414.45	3254.22
414.66	3248.08
414.87	3356.62
415.08	3299.28
415.30	3311.57
415.51	3239.89
415.72	3241.93
415.93	3311.57
416.14	3293.13
416.35	3340.24
416.56	3250.13
416.78	3307.47
416.99	3434.44
417.20	3375.05
417.41	3407.82
417.62	3407.82
417.83	3477.45
418.04	3383.24
418.26	3479.50
418.47	3393.48
418.68	3504.07
418.89	3430.35
419.10	3631.05
419.31	3397.58
419.52	3518.41
419.73	3657.67
419.95	3473.36
420.16	3483.59
420.37	3590.09
420.58	3491.79
420.79	3448.78
421.00	3608.52
421.21	3590.09
421.42	3575.75
421.63	3547.08
421.85	3790.79
422.06	3672.01
422.27	3626.95
422.48	3682.25
422.69	3727.30
422.90	3760.07
423.11	3725.26
423.32	3715.02
423.53	3938.24
423.75	3776.45
423.96	3823.56
424.17	3768.26
424.38	3954.63
424.59	3989.44
424.80	4108.23
425.01	4003.78
425.22	3962.82
425.43	3962.82
425.64	4050.88
425.85	4014.02
426.06	3948.48
426.28	3913.67
426.49	3891.14
426.70	3917.76
426.91	4157.38
427.12	4079.55
427.33	4204.48
427.54	4229.06
427.75	4120.51
427.96	4265.92
428.17	4153.28
428.38	4202.43
428.59	4190.14
428.80	4245.44
429.01	4194.24
429.23	4329.41
429.44	4394.94
429.65	4313.02
429.86	4382.65
430.07	4186.05
430.28	4411.32
430.49	4513.72
430.70	4440.00
430.91	4495.29
431.12	4489.15
431.33	4624.31
431.54	4495.29
431.75	4497.34
431.96	4597.69
432.17	4491.20
432.38	4536.25
432.59	4702.14
432.80	4495.29
433.01	4663.22
433.22	4708.28
433.43	4644.79
433.64	4554.68
433.85	4519.87
434.06	4810.68
434.27	4718.52
434.49	4753.34
434.70	4786.10
434.91	4845.49
435.12	4818.87
435.33	4859.83
435.54	4855.73
435.75	4648.89
435.96	4878.26
436.17	4892.60
436.38	4921.27
436.59	4939.70
436.80	4941.75
437.01	5095.35
437.22	5201.84
437.43	5093.30
437.64	4773.82
437.85	4968.37
438.06	5011.38
438.27	4978.61
438.48	5101.49
438.69	5171.12
438.90	5277.62
439.11	5107.63
439.32	5134.26
439.53	5115.83
439.74	5119.92
439.95	5201.84
440.16	5187.50
440.37	5308.34
440.57	5093.30
440.78	5238.70
440.99	5371.82
441.20	5408.69
441.41	5250.99
441.62	5267.38
441.83	5119.92
442.04	5496.75
442.25	5367.73
442.46	5398.45
442.67	5480.36
442.88	5830.57
443.09	5384.11
443.30	5459.88
443.51	5535.66
443.72	5748.65
443.93	5476.27
444.14	5558.19
444.35	5425.07
444.56	5662.63
444.77	5644.20
444.98	5679.02
445.19	5711.78
445.40	5746.60
445.61	5701.54
445.81	5926.82
446.02	5853.09
446.23	5779.37
446.44	5728.17
446.65	5916.58
446.86	5779.37
447.07	5830.57
447.28	5973.92
447.49	5980.07
447.70	5889.96
447.91	5836.71
448.12	6000.55
448.33	6035.36
448.54	6082.47
448.74	5918.63
448.95	6041.51
449.16	6012.84
449.37	6344.61
449.58	6086.56
449.79	6444.96
450.00	6227.87
450.21	6391.71
450.42	6274.98
450.63	6408.09
450.84	6217.63
451.05	6317.98
451.25	6246.30
451.46	6256.54
451.67	6393.76
451.88	6320.03
452.09	6465.44
452.30	6371.23
452.51	6336.42
452.72	6510.49
452.93	6668.19
453.13	6447.01
453.34	6584.22
453.55	6436.77
453.76	6444.96
453.97	7040.92
454.18	6627.23
454.39	6698.91
454.60	6694.81
454.81	6766.49
455.01	6825.88
455.22	6676.38
455.43	6897.56
455.64	6887.32
455.85	7024.53
456.06	7083.92
456.27	6938.52
456.48	6926.23
456.68	6893.46
456.89	6987.67
457.10	7337.87
457.31	7096.21
457.52	6952.85
457.73	7217.04
457.94	7397.26
458.14	7214.99
458.35	7458.70
458.56	7317.39
458.77	7372.69
458.98	7585.68
459.19	7407.50
459.39	7460.75
459.60	7675.79
459.81	7583.63
460.02	7565.20
460.23	7661.45
460.44	7806.86
460.65	7757.71
460.85	7782.28
461.06	7958.41
461.27	7602.06
461.48	8009.61
461.69	8023.94
461.89	7835.53
462.10	7942.02
462.31	7948.17
462.52	7925.64
462.73	8089.48
462.94	8390.53
463.14	8071.04
463.35	8025.99
463.56	8511.36
463.77	8236.93
463.98	8234.88
464.18	8279.94
464.39	8511.36
464.60	8505.21
464.81	8580.99
465.02	8513.41
465.23	8720.25
465.43	8550.27
465.64	8894.33
465.85	8728.44
466.06	8789.88
466.27	8935.29
466.47	8927.10
466.68	8994.68
466.89	8916.86
467.10	9066.36
467.30	9080.69
467.51	9150.32
467.72	9273.20
467.93	9156.47
468.14	9314.16
468.34	9381.74
468.55	9404.27
468.76	9355.12
468.97	9328.50
469.17	9322.35
469.38	9588.59
469.59	9957.22
469.80	9484.14
470.01	9629.55
470.21	9922.41
470.42	10080.10
470.63	9983.85
470.84	9760.62
471.04	10264.42
471.25	10129.25
471.46	10039.14
471.67	10184.55
471.87	10364.77
472.08	10446.69
472.29	10452.83
472.50	10188.64
472.70	10375.01
472.91	10540.90
473.12	10792.80
473.33	10817.37
473.53	10948.44
473.74	10796.89
473.95	10938.20
474.16	10977.11
474.36	10919.77
474.57	11206.48
474.78	11345.75
474.99	11159.38
475.19	11302.74
475.40	11667.28
475.61	11519.82
475.81	11650.89
476.02	12029.77
476.23	11706.19
476.44	11874.12
476.64	11927.37
476.85	12132.17
477.06	11943.75
477.27	12175.17
477.47	12382.02
477.68	12175.17
477.89	12486.47
478.09	12396.35
478.30	12506.95
478.51	12715.84
478.71	12738.37
478.92	12732.22
479.13	13086.52
479.34	12994.36
479.54	12934.97
479.75	13246.26
479.96	12910.40
480.16	13016.89
480.37	13201.21
480.58	13489.97
480.78	13649.71
480.99	13408.05
481.20	13694.77
481.41	13831.98
481.61	13786.93
481.82	13895.47
482.03	13807.41
482.23	13989.67
482.44	14067.50
482.65	14014.25
482.85	14249.77
483.06	14380.84
483.27	14438.18
483.47	14208.81
483.68	14415.65
483.89	14917.40
484.09	14694.18
484.30	14772.00
484.51	15114.01
484.71	15052.57
484.92	15159.06
485.13	15177.50
485.33	15179.54
485.54	15169.30
485.75	15410.96
485.95	15419.16
486.16	15304.47
486.37	15617.81
486.57	15697.68
486.78	15580.95
486.98	15900.43
487.19	15927.05
487.40	16002.83
487.60	16191.24
487.81	16254.73
488.02	16174.86
488.22	16162.57
488.43	16359.17
488.64	16324.36
488.84	16477.96
489.05	16666.37
489.25	16541.44
489.46	17112.83
489.67	16932.61
489.87	17037.05
490.08	16891.65
490.29	17166.07
490.49	17422.07
490.70	17297.14
490.90	17280.76
491.11	17252.09
491.32	17620.72
491.52	17559.28
491.73	17440.50
491.94	17872.62
492.14	17610.48
492.35	17972.97
492.55	17811.18
492.76	17770.22
492.97	18179.82
493.17	17780.46
493.38	17925.87
493.58	18507.49
493.79	18368.23
494.00	18163.43
494.20	18599.65
494.41	18540.26
494.61	18634.47
494.82	18769.63
495.02	18771.68
495.23	19035.87
495.44	18988.77
495.64	19259.10
495.85	18929.38
496.05	19117.79
496.26	19271.39
496.47	19252.95
496.67	19338.97
496.88	19625.68
497.08	19537.62
497.29	19582.68
497.49	19465.94
497.70	19723.99
497.91	19846.87
498.11	19934.93
498.32	19961.55
498.52	20061.90
498.73	19979.98
498.93	20018.89
499.14	20117.20
499.34	20334.28
499.55	20307.66
499.76	20180.68
499.96	20350.67
500.17	20278.99
500.37	20553.41
500.58	20494.02
500.78	20508.36
500.99	20788.93
501.19	21092.03
501.40	20899.52
501.60	21092.03
501.81	20756.16
502.02	21079.74
502.22	21098.17
502.43	21212.86
502.63	21202.62
502.84	21327.55
503.04	21165.76
503.25	21178.04
503.45	21475.00
503.66	21544.63
503.86	21382.84
504.07	21614.26
504.27	21556.92
504.48	21946.03
504.68	21585.59
504.89	21753.52
505.09	21819.06
505.30	21808.82
505.50	21812.92
505.71	22034.10
505.91	22027.95
506.12	22107.82
506.32	22163.12
506.53	22175.41
506.73	22415.02
506.94	22517.42
507.14	22224.56
507.35	22396.59
507.55	22331.05
507.76	22247.08
507.96	22550.18
508.17	22394.54
508.37	22296.24
508.58	22593.19
508.78	22773.41
508.99	22822.56
509.19	22740.64
509.40	22933.15
509.60	22771.36
509.81	22933.15
510.01	22982.31
510.22	22849.19
510.42	23096.99
510.63	23205.53
510.83	23088.80
511.04	23129.76
511.24	23348.89
511.44	23162.53
511.65	23705.24
511.85	23516.83
512.06	23514.78
512.26	23469.72
512.47	23473.82
512.67	23361.18
512.88	23826.07
513.08	23498.39
513.29	23918.23
513.49	23899.80
513.69	23533.21
513.90	23797.40
514.10	24043.15
514.31	24215.18
514.51	24217.23
514.72	23729.81
514.92	23821.97
515.13	24092.30
515.33	24069.78
515.53	24200.85
515.74	24118.93
515.94	23989.91
516.15	24397.45
516.35	24229.52
516.56	24596.10
516.76	24295.05
516.96	24489.61
517.17	24487.56
517.37	24675.98
517.58	24483.47
517.78	24645.26
517.99	24729.22
518.19	24897.16
518.39	24868.48
518.60	24950.40
518.80	24782.47
519.01	24665.74
519.21	24905.35
519.41	25032.32
519.62	25013.89
519.82	25333.37
520.03	25204.35
520.23	25405.05
520.43	24852.10
520.64	25466.49
520.84	25538.17
521.05	25343.61
521.25	25659.00
521.45	25824.89
521.66	25511.55
521.86	25523.83
522.07	25519.74
522.27	25591.42
522.47	25679.48
522.68	26154.61
522.88	26015.35
523.08	25992.82
523.29	26130.03
523.49	26103.41
523.70	26189.42
523.90	26828.39
524.10	26087.03
524.31	26216.05
524.51	26422.89
524.71	26619.50
524.92	26578.54
525.12	26791.53
525.33	26830.44
525.53	26414.70
525.73	26871.40
525.94	26959.46
526.14	27117.15
526.34	26920.55
526.55	27278.94
526.75	26828.39
526.95	27086.43
527.16	27227.74
527.36	27262.56
527.56	27569.76
527.77	27639.39
527.97	27625.05
528.17	27784.79
528.38	27727.45
528.58	27674.20
528.78	27842.14
528.99	27709.02
529.19	28069.46
529.39	27653.72
529.60	28210.77
529.80	28149.33
530.00	28053.08
530.21	27897.43
530.41	28616.27
530.61	28208.72
530.82	28384.85
531.02	28134.99
531.22	28792.39
531.43	28599.88
531.63	28710.47
531.83	28747.34
532.04	29068.87
532.24	28956.23
532.44	29374.02
532.64	29163.08
532.85	29130.31
533.05	29318.72
533.25	29097.54
533.46	29345.34
533.66	29562.43
533.86	29259.33
534.07	29761.08
534.27	29515.33
534.47	29920.82
534.67	30166.58
534.88	29767.23
535.08	29886.01
535.28	30004.79
535.49	29988.41
535.69	30617.13
535.89	30236.21
536.09	30318.13
536.30	30178.87
536.50	30367.28
536.70	30993.96
536.91	30547.50
537.11	30631.47
537.31	30766.63
537.51	30723.63
537.72	31157.80
537.92	31493.66
538.12	31039.01
538.32	30924.33
538.53	31170.08
538.73	31041.06
538.93	31206.95
539.13	31456.80
539.34	31217.19
539.54	30996.01
539.74	31542.81
539.94	31526.43
540.15	31421.98
540.35	31653.40
540.55	31720.99
540.75	31542.81
540.96	31467.04
541.16	31874.59
541.36	32032.28
541.56	31665.69
541.77	32214.55
541.97	31827.48
542.17	32169.49
542.37	32232.98
542.58	31841.82
542.78	31968.79
542.98	32140.82
543.18	32497.17
543.38	32263.70
543.59	32847.37
543.79	32445.97
543.99	32505.36
544.19	32552.46
544.40	32466.45
544.60	33136.13
544.80	32933.39
545.00	32925.19
545.20	33222.15
545.41	33033.74
545.61	32935.43
545.81	33287.68
546.01	33267.20
546.21	33455.62
546.42	32888.33
546.62	33277.44
546.82	33236.48
547.02	33166.85
547.22	33961.47
547.43	33003.02
547.63	33398.27
547.83	33220.10
548.03	33207.81
548.23	33580.54
548.44	33531.39
548.64	33568.26
548.84	33695.23
549.04	33816.06
549.24	33584.64
549.45	33611.26
549.65	33773.05
549.85	34156.02
550.05	34035.19
550.25	33517.06
550.45	34182.65
550.66	33920.51
550.86	34147.83
551.06	34262.52
551.26	34022.90
551.46	33981.95
551.66	34127.35
551.87	33967.61
552.07	34321.91
552.27	34254.33
552.47	34254.33
552.67	34156.02
552.87	34153.97
553.07	34305.52
553.28	34563.57
553.48	34442.74
553.68	34412.02
553.88	34520.56
554.08	34874.86
554.28	34455.03
554.48	34579.95
554.69	34573.81
554.89	34459.12
555.09	34545.14
555.29	34590.19
555.49	34692.59
555.69	34706.93
555.89	34287.09
556.10	34903.53
556.30	34612.72
556.50	34942.44
556.70	34919.92
556.90	34719.21
557.10	35055.08
557.30	34946.54
557.50	35087.85
557.70	35190.25
557.91	35247.59
558.11	35016.17
558.31	35329.51
558.51	34934.25
558.71	35149.29
558.91	35077.61
559.11	35364.32
559.31	35407.33
559.51	34942.44
559.72	35143.14
559.92	35364.32
560.12	35014.12
560.32	35202.53
560.52	35087.85
560.72	35331.56
560.92	35292.65
561.12	35483.11
561.32	35671.52
561.52	35100.14
561.72	35825.12
561.93	35329.51
562.13	35532.26
562.33	35220.97
562.53	35904.99
562.73	35149.29
562.93	35548.64
563.13	35761.63
563.33	35562.98
563.53	35773.92
563.73	35214.82
563.93	35907.04
564.13	36197.85
564.33	35554.79
564.53	35675.62
564.74	36128.22
564.94	35950.04
565.14	36060.63
565.34	35562.98
565.54	36333.01
565.74	35806.69
565.94	35980.76
566.14	35751.39
566.34	36036.06
566.54	36423.12
566.74	35605.98
566.94	35972.57
567.14	36128.22
567.34	36085.21
567.54	36105.69
567.74	36312.53
567.94	36040.15
568.14	36257.24
568.34	36165.08
568.54	36117.98
568.74	36462.04
568.94	36079.07
569.14	36779.47
569.34	36406.74
569.54	36357.59
569.75	35993.05
569.95	36439.51
570.15	36705.74
570.35	36394.45
570.55	36054.49
570.75	36695.50
570.95	36251.09
571.15	36627.92
571.35	36629.97
571.55	36546.00
571.75	36406.74
571.95	36593.11
572.15	36443.60
572.35	36509.14
572.55	36709.84
572.75	36351.45
572.95	37037.51
573.15	36742.61
573.35	36693.46
573.55	36546.00
573.75	36603.35
573.95	36734.42
574.15	36459.99
574.35	37096.91
574.55	36562.39
574.75	36681.17
574.95	36752.85
575.15	36869.58
575.34	36875.73
575.54	37348.81
575.74	37051.85
575.94	37152.20
576.14	36836.81
576.34	37152.20
576.54	37117.39
576.74	37045.71
576.94	37242.31
577.14	37268.94
577.34	37520.84
577.54	37137.87
577.74	37340.61
577.94	36851.15
578.14	37483.97
578.34	37684.67
578.54	37326.28
578.74	36980.17
578.94	37410.25
579.14	37246.41
579.34	37481.92
579.54	37631.43
579.74	37707.20
579.94	37400.01
580.13	37758.40
580.33	37787.07
580.53	37813.70
580.73	37447.11
580.93	37721.54
581.13	37901.76
581.33	38131.13
581.53	38176.19
581.73	37510.60
581.93	38002.11
582.13	37971.39
582.33	37717.44
582.53	37932.48
582.73	38235.58
582.92	38172.09
583.12	37977.53
583.32	38153.66
583.52	38151.61
583.72	38372.79
583.92	38061.50
584.12	38256.06
584.32	38524.34
584.52	38675.89
584.72	38194.62
584.92	38710.71
585.11	38669.75
585.31	38405.56
585.51	38458.81
585.71	38759.86
585.91	38714.80
586.11	38143.42
586.31	38284.73
586.51	38135.23
586.71	38354.36
586.91	38774.19
587.10	38522.29
587.30	38673.84
587.50	38895.02
587.70	38852.02
587.90	38843.82
588.10	39060.91
588.30	38792.62
588.50	39191.98
588.69	38880.69
588.89	38317.50
589.09	39277.99
589.29	39134.63
589.49	38766.00
589.69	38395.32
589.89	39216.55
590.08	39130.54
590.28	38989.23
590.48	39148.97
590.68	39097.77
590.88	38997.42
591.08	38964.65
591.28	39028.14
591.47	39239.08
591.67	38913.45
591.87	38938.03
592.07	39286.18
592.27	39243.18
592.47	39507.37
592.67	39294.38
592.86	39026.09
593.06	39165.35
593.26	39353.77
593.46	39267.75
593.66	39237.03
593.86	39312.81
594.05	39275.94
594.25	39226.79
594.45	39196.07
594.65	39445.93
594.85	38995.37
595.05	39759.27
595.24	39132.59
595.44	39781.79
595.64	39673.25
595.84	39595.43
596.04	39552.42
596.23	39255.46
596.43	39673.25
596.63	39605.67
596.83	39370.15
597.03	39859.62
597.22	40011.17
597.42	39609.76
597.62	40232.35
597.82	39984.54
598.02	40357.27
598.21	39939.49
598.41	39931.29
598.61	39806.37
598.81	39947.68
599.01	40156.57
599.20	40031.65
599.40	40150.43
599.60	40277.40
599.80	40064.41
600.00	40377.75
600.19	40613.27
600.39	40127.90
600.59	40465.81
600.79	40121.76
600.98	40187.29
601.18	40605.08
601.38	40500.63
601.58	40443.29
601.78	40058.27
601.97	40455.57
602.17	40564.12
602.37	40820.11
602.57	40508.82
602.76	40715.67
602.96	40308.12
603.16	40949.14
603.36	40824.21
603.55	40684.95
603.75	40910.22
603.95	40687.00
604.15	40521.11
604.34	40621.46
604.54	40883.60
604.74	40940.94
604.94	41274.76
605.13	40924.56
605.33	41000.33
605.53	41067.92
605.73	41094.54
605.92	41014.67
606.12	41059.73
606.32	40856.98
606.52	40975.76
606.71	41037.20
606.91	41348.49
607.11	40920.46
607.30	41442.70
607.50	41319.82
607.70	41237.90
607.90	41297.29
608.09	41383.30
608.29	41254.28
608.49	41223.56
608.68	41121.16
608.88	41618.82
609.08	41510.28
609.28	41483.66
609.47	40934.80
609.67	41495.94
609.87	41469.32
610.06	41256.33
610.26	41172.36
610.46	41436.55
610.66	41403.78
610.85	41174.41
611.05	41289.10
611.25	41575.81
611.44	41383.30
611.64	41387.40
611.84	41254.28
612.03	41235.85
612.23	41645.44
612.43	41463.18
612.62	41360.78
612.82	41047.44
613.02	41121.16
613.21	41506.18
613.41	41434.50
613.61	41530.76
613.80	40813.97
614.00	41319.82
614.20	41258.38
614.39	40953.23
614.59	41543.05
614.79	41203.08
614.98	41348.49
615.18	41618.82
615.38	41229.71
615.57	41080.21
615.77	41530.76
615.97	41352.58
616.16	41362.82
616.36	40897.94
616.56	41332.11
616.75	41219.47
616.95	41211.28
617.15	41377.16
617.34	41006.48
617.54	40910.22
617.74	41469.32
617.93	40820.11
618.13	40971.66
618.32	41454.98
618.52	41158.03
618.72	40893.84
618.91	41508.23
619.11	40873.36
619.31	40967.57
619.50	41219.47
619.70	40955.28
619.90	41010.57
620.09	40904.08
620.29	40875.41
620.48	40512.92
620.68	41139.60
620.88	40695.19
621.07	40971.66
621.27	40766.87
621.46	40416.66
621.66	41090.44
621.86	40678.80
622.05	40609.17
622.25	40779.15
622.44	40781.20
622.64	40674.71
622.84	40912.27
623.03	40461.72
623.23	40744.34
623.42	40453.53
623.62	40975.76
623.82	41076.11
624.01	40592.79
624.21	41026.96
624.40	40676.76
624.60	40994.19
624.80	40910.22
624.99	40404.38
625.19	40185.24
625.38	40687.00
625.58	40570.26
625.77	40560.02
625.97	40471.96
626.17	40228.25
626.36	40770.96
626.56	40826.26
626.75	40076.70
626.95	40834.45
627.14	40412.57
627.34	41000.33
627.54	40480.15
627.73	40127.90
627.93	40625.56
628.12	40519.06
628.32	40793.49
628.51	40170.91
628.71	40813.97
628.90	40811.92
629.10	40674.71
629.30	40408.47
629.49	40359.32
629.69	40594.84
629.88	40340.89
630.08	40301.98
630.27	40301.98
630.47	40351.13
630.66	40181.15
630.86	40574.36
631.05	40220.06
631.25	40576.40
631.44	40320.41
631.64	39968.16
631.84	40437.14
632.03	40824.21
632.23	40365.46
632.42	40637.84
632.62	40224.15
632.81	40564.12
633.01	40435.10
633.20	40371.61
633.40	40416.66
633.59	39822.75
633.79	40060.32
633.98	40060.32
634.18	40420.76
634.37	40408.47
634.57	40125.85
634.76	40367.51
634.96	40328.60
635.15	40746.39
635.35	40088.99
635.54	40146.33
635.74	40605.08
635.93	40199.58
636.13	40576.40
636.32	40136.09
636.52	39849.38
636.71	40273.31
636.91	40459.67
637.10	40381.85
637.30	40236.44
637.49	39955.87
637.69	40015.26
637.88	40125.85
638.08	40207.77
638.27	40045.98
638.46	39984.54
638.66	39865.76
638.85	40211.87
639.05	39884.19
639.24	40431.00
639.44	39724.45
639.63	40017.31
639.83	40379.80
640.02	40367.51
640.22	39822.75
640.41	40037.79
640.61	39812.51
640.80	40037.79
640.99	40072.60
641.19	40181.15
641.38	39931.29
641.58	39996.83
641.77	40029.60
641.97	40261.02
642.16	39857.57
642.36	40471.96
642.55	40258.97
642.74	40011.17
642.94	40355.22
643.13	39959.97
643.33	40318.36
643.52	40349.08
643.72	40267.16
643.91	40414.62
644.10	40379.80
644.30	40144.28
644.49	39990.69
644.69	40158.62
644.88	40084.89
645.08	39894.43
645.27	39935.39
645.46	39761.31
645.66	40377.75
645.85	39755.17
646.05	40115.61
646.24	40113.56
646.43	40484.25
646.63	40691.09
646.82	40349.08
647.02	40152.48
647.21	40572.31
647.40	40218.01
647.60	40392.09
647.79	40269.21
647.99	40289.69
648.18	39947.68
648.37	40414.62
648.57	40207.77
648.76	40191.39
648.96	39773.60
649.15	39980.45
649.34	39781.79
649.54	40250.78
649.73	40080.80
649.92	39867.81
650.12	40248.73
650.31	39966.11
650.51	40121.76
650.70	40072.60
650.89	39703.97
651.09	40416.66
651.28	39943.58
651.47	39814.56
651.67	39896.48
651.86	40379.80
652.06	39564.71
652.25	39900.58
652.44	40005.02
652.64	39853.47
652.83	39710.11
653.02	39843.23
653.22	39849.38
653.41	40261.02
653.60	39630.24
653.80	39710.11
653.99	40050.08
654.18	39830.94
654.38	39589.28
654.57	39773.60
654.76	39890.34
654.96	40019.36
655.15	39939.49
655.34	39706.02
655.54	39589.28
655.73	39599.52
655.92	40285.59
656.12	39677.35
656.31	40146.33
656.50	40060.32
656.70	39421.35
656.89	39781.79
657.08	39712.16
657.28	39503.27
657.47	39564.71
657.66	39746.98
657.86	39796.13
658.05	39390.63
658.24	39775.65
658.43	39515.56
658.63	39867.81
658.82	40048.03
659.01	39853.47
659.21	39939.49
659.40	39857.57
659.59	39484.84
659.79	39665.06
659.98	39765.41
660.17	39927.20
660.36	39490.98
660.56	39275.94
660.75	39490.98
660.94	39685.54
661.14	39517.60
661.33	39796.13
661.52	39261.61
661.71	39765.41
661.91	39208.36
662.10	39368.10
662.29	39806.37
662.49	39480.74
662.68	39863.71
662.87	39615.91
663.06	39372.20
663.26	39269.80
663.45	39521.70
663.64	39048.62
663.83	39650.72
664.03	39613.86
664.22	38983.09
664.41	39665.06
664.60	39351.72
664.80	39138.73
664.99	39298.47
665.18	39339.43
665.37	39288.23
665.57	39353.77
665.76	39151.02
665.95	39368.10
666.14	39347.62
666.34	39513.51
666.53	39548.32
666.72	38968.75
666.91	38890.93
667.11	38729.14
667.30	39181.74
667.49	39337.38
667.68	39142.83
667.87	39282.09
668.07	39265.70
668.26	39083.44
668.45	39001.52
668.64	38645.17
668.84	39472.55
669.03	39230.89
669.22	39374.25
669.41	39263.66
669.60	39122.35
669.80	38729.14
669.99	39374.25
670.18	39218.60
670.37	38944.17
670.57	39222.70
670.76	39144.87
670.95	38909.36
671.14	38598.07
671.33	38376.89
671.53	39210.41
671.72	38741.42
671.91	38661.55
672.10	38591.92
672.29	38700.47
672.48	38784.43
672.68	38704.56
672.87	38524.34
673.06	38618.55
673.25	38618.55
673.44	38659.51
673.64	39009.71
673.83	38446.52
674.02	38419.89
674.21	38419.89
674.40	38733.23
674.59	38610.35
674.79	38759.86
674.98	38264.25
675.17	38354.36
675.36	38393.27
675.55	38489.52
675.74	38553.01
675.94	38243.77
676.13	38395.32
676.32	38651.31
676.51	38421.94
676.70	38454.71
676.89	38032.83
677.08	38380.98
677.28	38204.86
677.47	38198.71
677.66	38428.09
677.85	38299.06
678.04	38129.08
678.23	38481.33
678.42	38378.93
678.62	38415.80
678.81	38229.43
679.00	38221.24
679.19	38268.34
679.38	38208.95
679.57	38081.98
679.76	38448.57
679.96	38215.10
680.15	38081.98
680.34	38047.16
680.53	38012.35
680.72	38086.07
680.91	38180.28
681.10	37604.80
681.29	38237.62
681.48	37436.87
681.68	37682.62
681.87	38018.49
682.06	37524.93
682.25	37535.17
682.44	37225.93
682.63	37678.53
682.82	37543.36
683.01	37486.02
683.20	37500.36
683.39	37617.09
683.59	37612.99
683.78	37295.56
683.97	37350.85
684.16	37680.58
684.35	37443.01
684.54	37422.53
684.73	37027.28
684.92	37133.77
685.11	36951.50
685.30	37131.72
685.49	37633.47
685.69	37273.03
685.88	37477.83
686.07	37176.78
686.26	37189.06
686.45	37256.65
686.64	37035.47
686.83	37217.74
687.02	37084.62
687.21	36619.73
687.40	36713.94
687.59	36908.49
687.78	37000.65
687.97	37199.30
688.16	37125.58
688.35	36812.24
688.54	36744.66
688.74	36562.39
688.93	36445.65
689.12	36828.62
689.31	36722.13
689.50	36646.35
689.69	36468.18
689.88	36500.95
690.07	36994.51
690.26	36707.79
690.45	36767.18
690.64	36914.64
690.83	36681.17
691.02	35984.86
691.21	36595.15
691.40	36548.05
691.59	36361.69
691.78	36795.85
691.97	36378.07
692.16	36101.59
692.35	36543.95
692.54	36439.51
692.73	36410.84
692.92	36625.87
693.11	36369.88
693.30	36072.92
693.49	36029.91
693.68	36152.79
693.87	36031.96
694.06	35898.84
694.25	35888.60
694.44	36210.14
694.63	36050.39
694.82	36023.77
695.01	35884.51
695.20	35808.73
695.39	35808.73
695.58	35593.70
695.77	35814.88
695.96	36025.82
696.15	36189.66
696.34	35507.68
696.53	35735.01
696.72	35878.36
696.91	35284.45
697.10	35735.01
697.29	35581.41
697.48	35513.83
697.67	35427.81
697.86	35550.69
698.05	35378.66
698.24	35722.72
698.43	34962.92
698.62	35331.56
698.81	35440.10
699.00	35544.55
699.19	35282.41
699.38	35245.54
699.57	34766.32
699.76	35538.40
699.95	35014.12
700.14	35440.10
700.32	35112.42
700.51	34909.68
700.70	35296.74
700.89	34926.06
701.08	35251.69
701.27	35016.17
701.46	35122.66
701.65	34551.28
701.84	35040.75
702.03	34770.41
702.22	34618.86
702.41	34840.04
702.60	34954.73
702.79	34502.13
702.98	34518.51
703.17	34719.21
703.35	34711.02
703.54	34631.15
703.73	34876.91
703.92	34627.06
704.11	34532.85
704.30	34299.38
704.49	34362.87
704.68	34213.37
704.87	34489.84
705.06	34436.59
705.25	34020.86
705.43	34295.28
705.62	34201.08
705.81	33961.47
706.00	34104.82
706.19	34174.45
706.38	33953.27
706.57	33785.34
706.76	33811.96
706.95	34186.74
707.14	33973.75
707.32	34022.90
707.51	33945.08
707.70	33635.84
707.89	33707.52
708.08	33682.94
708.27	34088.44
708.46	34059.77
708.65	33795.58
708.84	33916.41
709.02	33703.42
709.21	33291.78
709.40	33115.65
709.59	33799.68
709.78	33304.07
709.97	33521.15
710.16	33347.08
710.34	33291.78
710.53	33390.08
710.72	33080.84
710.91	33490.43
711.10	33050.12
711.29	32960.01
711.48	33437.19
711.66	32929.29
711.85	32964.10
712.04	33363.46
712.23	33066.50
712.42	33039.88
712.61	32814.60
712.80	32734.73
712.98	32712.20
713.17	32775.69
713.36	32681.49
713.55	32771.60
713.74	32755.21
713.93	32685.58
714.11	32312.85
714.30	32355.86
714.49	32417.30
714.68	32681.49
714.87	32556.56
715.06	32609.81
715.24	32544.27
715.43	32341.52
715.62	32149.01
715.81	32437.78
716.00	32638.48
716.18	32169.49
716.37	32130.58
716.56	31870.49
716.75	32300.56
716.94	32185.88
717.12	31884.83
717.31	32159.25
717.50	31911.45
717.69	31790.62
717.88	31718.94
718.06	31784.48
718.25	32067.09
718.44	31700.51
718.63	31858.20
718.82	31632.93
719.00	31739.42
719.19	31569.44
719.38	31700.51
719.57	31200.80
719.76	31378.98
719.94	31411.74
720.13	31276.58
720.32	31192.61
720.51	31153.70
720.69	31383.07
720.88	30879.27
721.07	31182.37
721.26	30645.80
721.44	30873.13
721.63	31051.30
721.82	31018.53
722.01	30629.42
722.20	30993.96
722.38	30801.45
722.57	30545.45
722.76	30785.07
722.95	30574.13
723.13	30680.62
723.32	30850.60
723.51	30387.76
723.70	30299.70
723.88	30408.24
724.07	30363.18
724.26	30375.47
724.44	30105.14
724.63	30418.48
724.82	29867.58
725.01	30301.75
725.19	30287.41
725.38	30162.48
725.57	30182.96
725.76	30197.30
725.94	29988.41
726.13	29857.34
726.32	29709.88
726.51	30189.11
726.69	30254.64
726.88	30021.17
727.07	30144.05
727.25	29974.07
727.44	29576.76
727.63	29789.75
727.82	30023.22
728.00	29627.96
728.19	29746.75
728.38	30107.19
728.56	29331.01
728.75	29984.31
728.94	29947.45
729.12	29808.19
729.31	29539.90
729.50	29402.69
729.69	29799.99
729.87	29691.45
730.06	29513.28
730.25	29664.83
730.43	29738.55
730.62	28984.90
730.81	29171.27
730.99	29668.92
731.18	29365.82
731.37	29494.85
731.55	29437.50
731.74	29777.47
731.93	29634.11
732.11	29591.10
732.30	29582.91
732.49	29267.52
732.67	29474.37
732.86	29163.08
733.05	29470.27
733.23	29195.84
733.42	29218.37
733.61	29072.96
733.79	29146.69
733.98	29259.33
734.17	28827.21
734.35	29197.89
734.54	28989.00
734.73	29095.49
734.91	29015.62
735.10	28694.09
735.29	28737.10
735.47	28902.98
735.66	28950.09
735.84	29038.15
736.03	28823.11
736.22	29056.58
736.40	28612.17
736.59	28573.26
736.78	28962.37
736.96	28687.95
737.15	28595.79
737.33	29060.68
737.52	28694.09
737.71	28382.80
737.89	28530.25
738.08	28577.36
738.27	28235.35
738.45	28847.69
738.64	28460.62
738.82	28186.19
739.01	28313.17
739.20	28409.42
739.38	28567.12
739.57	28595.79
739.75	28239.44
739.94	28493.39
740.13	28122.71
740.31	28118.61
740.50	28079.70
740.68	28194.39
740.87	27762.26
741.06	27930.20
741.24	28040.79
741.43	27782.74
741.61	28036.69
741.80	27985.49
741.99	28028.50
742.17	27962.97
742.36	27858.52
742.54	27600.47
742.73	27717.21
742.91	28061.27
743.10	27631.19
743.29	27833.94
743.47	27749.98
743.66	27631.19
743.84	27588.19
744.03	27614.81
744.21	27725.40
744.40	27930.20
744.59	27598.43
744.77	27463.26
744.96	27403.87
745.14	27352.67
745.33	27459.16
745.51	27379.29
745.70	27596.38
745.88	26875.49
746.07	27340.38
746.26	27070.05
746.44	27147.87
746.63	26951.27
746.81	27272.80
747.00	27311.71
747.18	27151.97
747.37	27280.99
747.55	27106.91
747.74	27405.92
747.92	27006.56
748.11	26971.75
748.29	26795.62
748.48	26812.01
748.66	26736.23
748.85	27350.62
749.03	26820.20
749.22	27070.05
749.41	26914.41
749.59	26967.65
749.78	26574.44
749.96	26429.04
750.15	26650.22
750.33	26769.00
750.52	26527.34
750.70	26863.21
750.89	26738.28
751.07	26363.50
751.26	26691.18
751.44	26650.22
751.63	26449.52
751.81	26191.47
752.00	26291.82
752.18	26513.00
752.37	26615.40
752.55	26203.76
752.74	26394.22
752.92	26420.84
753.10	26193.52
753.29	26445.42
753.47	26123.89
753.66	25949.81
753.84	26300.01
754.03	26195.57
754.21	26209.90
754.40	26283.63
754.58	26257.01
754.77	26179.18
754.95	26234.48
755.14	26115.70
755.32	25876.09
755.51	25810.55
755.69	25755.26
755.88	26132.08
756.06	25685.62
756.24	26033.78
756.43	25515.64
756.61	25771.64
756.80	25980.53
756.98	25589.37
757.17	25372.28
757.35	25749.11
757.54	25777.78
757.72	25638.52
757.90	25646.71
758.09	25495.16
758.27	25818.74
758.46	25333.37
758.64	25749.11
758.83	25568.89
759.01	25343.61
759.19	25355.90
759.38	25353.85
759.56	25384.57
759.75	25398.91
759.93	25282.17
760.12	25501.31
760.30	25607.80
760.48	25308.80
760.67	25319.04
760.85	25237.12
761.04	25282.17
761.22	25443.96
761.40	25003.65
761.59	25261.69
761.77	24741.51
761.96	25200.26
762.14	24919.68
762.32	25155.20
762.51	24727.17
762.69	24667.78
762.88	24772.23
763.06	24829.57
763.24	24811.14
763.43	24968.84
763.61	24796.81
763.80	24893.06
763.98	24569.48
764.16	24880.77
764.35	24942.21
764.53	24501.90
764.72	24565.39
764.90	24895.11
765.08	24577.67
765.27	24706.70
765.45	24313.48
765.63	24405.64
765.82	24551.05
766.00	24278.67
766.18	24104.59
766.37	24573.58
766.55	24315.53
766.74	24276.62
766.92	24319.63
767.10	24077.97
767.29	24282.77
767.47	23791.25
767.65	24295.05
767.84	24039.06
768.02	24135.31
768.20	23983.76
768.39	24133.26
768.57	23916.18
768.75	23950.99
768.94	24022.67
769.12	23852.69
769.30	23725.72
769.49	24034.96
769.67	23641.75
769.85	23543.45
770.04	23793.30
770.22	23611.03
770.40	23758.49
770.59	23410.33
770.77	23549.59
770.95	23547.54
771.14	23496.35
771.32	23412.38
771.50	23344.80
771.69	23232.16
771.87	23565.98
772.05	23287.45
772.24	22988.45
772.42	23309.98
772.60	23318.17
772.78	23010.98
772.97	23416.47
773.15	23201.44
773.33	23303.84
773.52	23441.05
773.70	23049.89
773.88	22920.87
774.07	23111.33
774.25	23246.49
774.43	23027.36
774.61	23049.89
774.80	23330.46
774.98	23309.98
775.16	22920.87
775.34	23084.70
775.53	23084.70
775.71	23205.53
775.89	23125.66
776.08	22949.54
776.26	22955.68
776.44	22728.36
776.62	23033.50
776.81	23060.13
776.99	23254.69
777.17	23246.49
777.35	23131.81
777.54	23213.73
777.72	23121.57
777.90	23039.65
778.08	23137.95
778.27	23350.94
778.45	23375.52
778.63	23367.32
778.81	22998.69
779.00	23434.91
779.18	23183.01
779.36	23258.78
779.54	23133.86
779.73	23066.27
779.91	23234.21
780.09	23279.26
780.27	23240.35
780.46	23352.99
780.64	23385.76
780.82	23269.02
781.00	23205.53
781.19	23326.36
781.37	23414.43
781.55	23398.04
781.73	23760.53
781.91	23252.64
782.10	23115.42
782.28	23242.40
782.46	23377.56
782.64	23473.82
782.82	23273.12
783.01	23416.47
783.19	23320.22
783.37	23271.07
783.55	23250.59
783.74	23346.84
783.92	23092.90
784.10	23525.02
784.28	23355.04
784.46	22918.82
784.64	23146.14
784.83	23506.59
785.01	23215.77
785.19	23027.36
785.37	23314.08
785.55	23422.62
785.74	23086.75
785.92	22949.54
786.10	23103.14
786.28	23328.41
786.46	22996.64
786.64	22767.27
786.83	23158.43
787.01	22935.20
787.19	23193.25
787.37	22892.19
787.55	23176.86
787.74	22937.25
787.92	22957.73
788.10	22824.61
788.28	22595.24
788.46	22873.76
788.64	22834.85
788.82	22904.48
789.01	22656.68
789.19	22904.48
789.37	22810.28
789.55	22988.45
789.73	22412.97
789.91	22525.61
790.09	22775.46
790.28	22318.76
790.46	22251.18
790.64	22775.46
790.82	22437.55
791.00	22226.60
791.18	22093.49
791.36	22263.47
791.55	22550.18
791.73	22331.05
791.91	22138.54
792.09	21939.89
792.27	22079.15
792.45	22351.53
792.63	21984.94
792.81	21892.79
793.00	21589.69
793.18	21663.41
793.36	21974.70
793.54	21866.16
793.72	21587.64
793.90	21753.52
794.08	21792.44
794.26	21577.40
794.44	21515.96
794.62	21112.51
794.81	21466.81
794.99	21614.26
795.17	21317.31
795.35	21235.39
795.53	21364.41
795.71	21409.47
795.89	21272.25
796.07	21087.93
796.25	21149.37
796.43	21206.72
796.61	20995.78
796.80	20983.49
796.98	21044.93
797.16	20608.71
797.34	20741.83
797.52	20809.41
797.70	21001.92
797.88	20686.53
798.06	20543.17
798.24	20838.08
798.42	20700.87
798.60	20457.16
798.78	20457.16
798.96	20588.23
799.14	20448.97
799.32	20534.98
799.51	20268.75
799.69	20563.65
799.87	20440.78
800.05	20160.20
800.23	20217.55
800.41	19953.36
800.59	20039.37
800.77	20088.53
800.95	19783.38
801.13	19949.26
801.31	19785.43
801.49	19840.72
801.67	20012.75
801.85	19693.27
802.03	19498.71
802.21	19783.38
802.39	19506.90
802.57	19738.32
802.75	19447.51
802.93	19429.08
803.11	19525.33
803.29	19336.92
803.47	19179.23
803.65	19349.21
803.83	19259.10
804.01	19191.52
804.19	19099.36
804.37	19125.98
804.55	19211.99
804.73	19117.79
804.91	18923.23
805.09	18966.24
805.27	18910.94
805.45	19128.03
805.63	18736.87
805.81	18829.02
805.99	18792.16
806.17	18751.20
806.35	18802.40
806.53	18652.90
806.71	18591.46
806.89	18718.43
807.07	18720.48
807.25	18603.75
807.43	18546.40
807.61	18542.31
807.79	18448.10
807.97	18263.79
808.15	18302.70
808.33	18249.45
808.51	18050.80
808.69	18149.10
808.87	18247.40
809.05	18069.23
809.23	17989.36
809.41	18015.98
809.59	17815.28
809.77	17958.64
809.95	17778.42
810.13	17889.01
810.31	17702.64
810.49	17499.89
810.67	17596.15
810.84	17719.03
811.02	17489.65
811.20	17555.19
811.38	17723.12
811.56	17411.83
811.74	17422.07
811.92	17381.11
812.10	17444.60
812.28	17399.54
812.46	17286.90
812.64	17501.94
812.82	17129.21
813.00	17323.77
813.18	17303.29
813.36	16977.66
813.53	17202.94
813.71	17108.73
813.89	17010.43
814.07	17104.64
814.25	16975.61
814.43	17067.77
814.61	16998.14
814.79	17057.53
814.97	16639.75
815.15	16795.39
815.33	16948.99
815.50	16762.62
815.68	16754.43
815.86	16549.64
816.04	16428.81
816.22	16643.84
816.40	16760.58
816.58	16287.50
816.76	16535.30
816.94	16310.02
817.11	16328.45
817.29	16303.88
817.47	16293.64
817.65	16336.65
817.83	16314.12
818.01	16137.99
818.19	16285.45
818.37	16312.07
818.54	16289.54
818.72	16011.02
818.90	16119.56
819.08	15935.24
819.26	16133.90
819.44	15875.85
819.62	15994.64
819.80	16119.56
819.97	15974.16
820.15	15918.86
820.33	16029.45
820.51	15863.57
820.69	15652.63
820.87	15939.34
821.05	15877.90
821.22	15654.67
821.40	15658.77
821.58	15820.56
821.76	15630.10
821.94	15800.08
822.12	15761.17
822.29	15574.80
822.47	15531.80
822.65	15654.67
822.83	15585.04
823.01	15341.33
823.19	15357.72
823.36	15550.23
823.54	15544.08
823.72	15539.99
823.90	15273.75
824.08	15392.53
824.25	15071.00
824.43	15120.15
824.61	15345.43
824.79	15099.67
824.97	15204.12
825.15	15138.58
825.32	15255.32
825.50	14956.32
825.68	14931.74
825.86	15560.47
826.04	15064.86
826.21	15077.15
826.39	15167.26
826.57	14694.18
826.75	14929.69
826.93	14780.19
827.10	14681.89
827.28	15103.77
827.46	14831.39
827.64	15011.61
827.81	14851.87
827.99	14655.26
828.17	14970.65
828.35	14714.66
828.53	14939.93
828.70	14683.94
828.88	14731.04
829.06	14745.38
829.24	14499.62
829.41	14501.67
829.59	14538.53
829.77	14425.89
829.95	14473.00
830.12	14429.99
830.30	14456.61
830.48	14483.24
830.66	14690.08
830.84	14538.53
831.01	14335.78
831.19	14397.22
831.37	14307.11
831.55	14249.77
831.72	14386.98
831.90	14221.10
832.08	14382.88
832.25	14126.89
832.43	14253.86
832.61	13991.72
832.79	14040.87
832.96	14229.29
833.14	13895.47
833.32	14149.42
833.50	13987.63
833.67	14047.02
833.85	13932.33
834.03	13879.08
834.20	14049.07
834.38	14061.35
834.56	14047.02
834.74	13854.51
834.91	14059.31
835.09	13811.50
835.27	13745.97
835.44	14059.31
835.62	13608.75
835.80	13905.71
835.98	13629.23
836.15	13768.49
836.33	13707.05
836.51	13924.14
836.68	13510.45
836.86	13481.78
837.04	13817.65
837.21	13700.91
837.39	13850.41
837.57	13684.53
837.75	13764.40
837.92	13559.60
838.10	13506.35
838.28	13504.31
838.45	13432.63
838.63	13541.17
838.81	13369.14
838.98	13397.81
839.16	13317.94
839.34	13385.52
839.51	13446.96
839.69	13512.50
839.87	13246.26
840.04	13434.68
840.22	13363.00
840.40	13313.84
840.57	13180.73
840.75	13117.24
840.93	13248.31
841.10	13317.94
841.28	13319.99
841.46	13158.20
841.63	13168.44
841.81	13266.74
841.98	13057.85
842.16	13170.49
842.34	13082.42
842.51	13084.47
842.69	12973.88
842.87	13076.28
843.04	13180.73
843.22	12977.98
843.40	12916.54
843.57	12994.36
843.75	12945.21
843.92	12822.33
844.10	12711.74
844.28	12916.54
844.45	12781.37
844.63	12689.21
844.81	12808.00
844.98	12877.63
845.16	12592.96
845.33	12717.89
845.51	12814.14
845.69	12582.72
845.86	12425.03
846.04	12711.74
846.21	12758.85
846.39	12496.71
846.57	12420.93
846.74	12523.33
846.92	12547.90
847.09	12465.99
847.27	12468.03
847.45	12508.99
847.62	12402.50
847.80	12463.94
847.97	12435.27
848.15	12255.04
848.32	12158.79
848.50	12236.61
848.68	12207.94
848.85	12212.04
849.03	12027.72
849.20	12320.58
849.38	12189.51
849.56	11865.93
849.73	12152.65
849.91	12113.74
850.08	12187.46
850.26	12080.97
850.43	12158.79
850.61	12126.02
850.78	11863.88
850.96	12287.81
851.14	11951.95
851.31	12021.58
851.49	11816.78
851.66	11937.61
851.84	11945.80
852.01	12072.78
852.19	12105.54
852.36	11851.60
852.54	11960.14
852.71	11927.37
852.89	11878.22
853.07	11810.64
853.24	11779.92
853.42	11867.98
853.59	11679.57
853.77	11804.49
853.94	11781.96
854.12	11777.87
854.29	11626.32
854.47	11632.46
854.64	11738.96
854.82	11790.16
854.99	11706.19
855.17	11743.05
855.34	11431.76
855.52	11630.41
855.69	11581.26
855.87	11691.85
856.04	11405.14
856.22	11476.82
856.39	11290.45
856.57	11759.44
856.74	11306.84
856.92	11564.88
857.09	11425.62
857.27	11364.18
857.44	11505.49
857.62	11095.89
857.79	11333.46
857.97	11214.68
858.14	11274.07
858.32	11192.15
858.49	11358.03
858.67	11071.32
858.84	11237.20
859.02	11464.53
859.19	11110.23
859.37	11036.50
859.54	11054.94
859.72	11138.90
859.89	11079.51
860.06	10919.77
860.24	10973.02
860.41	11200.34
860.59	10956.63
860.76	11077.46
860.94	10927.96
861.11	10938.20
861.29	10977.11
861.46	10786.65
861.64	10843.99
861.81	11007.83
861.98	11073.37
862.16	10764.12
862.33	10760.03
862.51	10893.15
862.68	10770.27
862.86	10628.96
863.03	10854.23
863.21	10878.81
863.38	10653.53
863.55	10641.25
863.73	10569.57
863.90	10356.58
864.08	10747.74
864.25	10760.03
864.43	10608.48
864.60	10655.58
864.77	10633.05
864.95	10600.29
865.12	10450.78
865.30	10510.18
865.47	10407.78
865.64	10452.83
865.82	10524.51
865.99	10563.42
866.17	10352.48
866.34	10456.93
866.51	10458.98
866.69	10366.82
866.86	10305.38
867.04	10297.19
867.21	10348.39
867.38	10237.80
867.56	10213.22
867.73	10213.22
867.91	10471.26
868.08	10123.11
868.25	10368.87
868.43	10186.60
868.60	10016.62
868.78	10321.76
868.95	10311.52
869.12	10069.86
869.30	10149.73
869.47	10010.47
869.64	10012.52
869.82	10024.81
869.99	10014.57
870.16	9994.09
870.34	9996.14
870.51	10194.79
870.69	9992.04
870.86	10018.66
871.03	9838.44
871.21	9899.88
871.38	9809.77
871.55	9842.54
871.73	9760.62
871.90	9742.19
872.07	9703.28
872.25	9557.87
872.42	9760.62
872.59	9762.67
872.77	9682.80
872.94	9531.25
873.11	9668.46
873.29	9660.27
873.46	9590.64
873.63	9506.67
873.81	9690.99
873.98	9559.92
874.15	9568.11
874.33	9404.27
874.50	9359.22
874.67	9408.37
874.85	9265.01
875.02	9496.43
875.19	9320.31
875.37	9363.31
875.54	9351.03
875.71	9365.36
875.88	9385.84
876.06	9357.17
876.23	9248.63
876.40	9256.82
876.58	9234.29
876.75	9326.45
876.92	9199.48
877.10	9301.87
877.27	9121.65
877.44	9152.37
877.61	8972.15
877.79	9389.94
877.96	9201.52
878.13	9215.86
878.31	8961.91
878.48	9002.87
878.65	9023.35
878.82	9189.24
879.00	9004.92
879.17	9031.54
879.34	8933.24
879.51	8851.32
879.69	8808.31
879.86	8798.07
880.03	8677.24
880.21	8873.85
880.38	8824.70
880.55	8820.60
880.72	8904.57
880.90	8923.00
881.07	8857.46
881.24	8746.87
881.41	8892.28
881.59	8855.42
881.76	8773.50
881.93	8548.22
882.10	8671.10
882.28	8634.24
882.45	8728.44
882.62	8728.44
882.79	8683.39
882.96	8507.26
883.14	8724.35
883.31	8701.82
883.48	8687.48
883.65	8679.29
883.83	8621.95
884.00	8554.37
884.17	8601.47
884.34	8632.19
884.51	8531.84
884.69	8640.38
884.86	8552.32
885.03	8421.25
885.20	8560.51
885.38	8433.54
885.55	8556.41
885.72	8345.47
885.89	8535.93
886.06	8281.99
886.24	8589.18
886.41	8441.73
886.58	8392.58
886.75	8527.74
886.92	8322.94
887.10	8298.37
887.27	8423.30
887.44	8411.01
887.61	8341.38
887.78	8361.86
887.95	8431.49
888.13	8423.30
888.30	8245.12
888.47	8206.21
888.64	8198.02
888.81	8351.62
888.99	8318.85
889.16	8296.32
889.33	8136.58
889.50	8222.59
889.67	8255.36
889.84	7958.41
890.01	8124.29
890.19	8181.64
890.36	8118.15
890.53	8109.96
890.70	8083.33
890.87	8025.99
891.04	8075.14
891.22	8071.04
891.39	8017.80
891.56	8032.13
891.73	8007.56
891.90	7960.45
892.07	7892.87
892.24	8019.85
892.42	7948.17
892.59	8130.44
892.76	7882.63
892.93	7901.06
893.10	7860.10
893.27	7823.24
893.44	7745.42
893.61	8093.57
893.79	7890.82
893.96	7858.06
894.13	7780.23
894.30	7790.47
894.47	7890.82
894.64	7880.58
894.81	7776.14
894.98	7786.38
895.15	7864.20
895.33	7735.18
895.50	7767.95
895.67	7864.20
895.84	7718.79
896.01	7761.80
896.18	7716.75
896.35	7755.66
896.52	7643.02
896.69	7602.06
896.86	7640.97
897.04	7798.66
897.21	7626.64
897.38	7659.40
897.55	7827.34
897.72	7614.35
897.89	7501.71
898.06	7686.03
898.23	7628.68
898.40	7782.28
898.57	7638.92
898.74	7626.64
898.91	7628.68
899.08	7561.10
899.26	7581.58
899.43	7706.51
899.60	7550.86
899.77	7477.13
899.94	7573.39
900.11	7313.30
900.28	7665.55
900.45	7401.36
900.62	7444.37
900.79	7491.47
900.96	7509.90
901.13	7446.41
901.30	7563.15
901.47	7483.28
901.64	7481.23
901.81	7600.01
901.98	7430.03
902.15	7569.29
902.32	7335.82
902.49	7376.78
902.66	7579.53
902.83	7544.72
903.01	7479.18
903.18	7419.79
903.35	7434.13
903.52	7483.28
903.69	7563.15
903.86	7352.21
904.03	7526.29
904.20	7348.11
904.37	7438.22
904.54	7389.07
904.71	7370.64
904.88	7411.60
905.05	7444.37
905.22	7258.00
905.39	7436.17
905.56	7344.02
905.73	7344.02
905.90	7360.40
906.07	7581.58
906.24	7374.74
906.41	7473.04
906.58	7413.65
906.75	7434.13
906.92	7303.06
907.09	7233.43
907.26	7374.74
907.43	7368.59
907.60	7258.00
907.77	7247.76
907.93	7391.12
908.10	7196.56
908.27	7397.26
908.44	7171.99
908.61	7253.91
908.78	7155.60
908.95	7208.85
909.12	7151.51
909.29	7317.39
909.46	7360.40
909.63	7301.01
909.80	7155.60
909.97	7294.86
910.14	7214.99
910.31	7047.06
910.48	7090.07
910.65	7202.71
910.82	7253.91
910.99	7208.85
911.16	7186.32
911.33	7106.45
911.50	7221.14
911.66	7210.90
911.83	7219.09
912.00	7047.06
912.17	7235.47
912.34	7126.93
912.51	7161.75
912.68	6809.50
912.85	7028.63
913.02	6993.81
913.19	7063.44
913.36	6930.33
913.53	6973.33
913.70	7075.73
913.86	6987.67
914.03	6891.41
914.20	6963.09
914.37	6932.37
914.54	6901.65
914.71	7055.25
914.88	7090.07
915.05	7002.01
915.22	6922.13
915.39	6825.88
915.55	6903.70
915.72	6868.89
915.89	6827.93
916.06	6684.57
916.23	6823.83
916.40	6815.64
916.57	6760.34
916.74	6680.47
916.91	6680.47
917.07	6528.92
917.24	6684.57
917.41	6696.86
917.58	6696.86
917.75	6614.94
917.92	6473.63
918.09	6608.80
918.26	6533.02
918.42	6549.40
918.59	6399.90
918.76	6410.14
918.93	6459.29
919.10	6424.48
919.27	6477.73
919.44	6490.01
919.60	6406.05
919.77	6252.45
919.94	6367.13
920.11	6463.39
920.28	6266.78
920.45	6297.50
920.61	6277.02
920.78	6291.36
920.95	6320.03
921.12	6217.63
921.29	6268.83
921.46	6203.30
921.62	6127.52
921.79	6305.70
921.96	6201.25
922.13	6068.13
922.30	5978.02
922.47	6090.66
922.63	5953.45
922.80	6006.69
922.97	5984.16
923.14	6014.88
923.31	6029.22
923.47	6006.69
923.64	5900.20
923.81	5955.49
923.98	5932.97
924.15	5943.21
924.32	5990.31
924.48	5883.81
924.65	6027.17
924.82	5853.09
924.99	5724.07
925.15	5666.73
925.32	5814.18
925.49	5666.73
925.66	5814.18
925.83	5590.95
925.99	5617.58
926.16	5597.10
926.33	5650.35
926.50	5615.53
926.67	5738.41
926.83	5513.13
927.00	5672.87
927.17	5550.00
927.34	5414.83
927.50	5498.80
927.67	5474.22
927.84	5423.02
928.01	5502.89
928.17	5334.96
928.34	5601.19
928.51	5377.97
928.68	5287.86
928.84	5349.29
929.01	5353.39
929.18	5250.99
929.35	5271.47
929.51	5349.29
929.68	5189.55
929.85	5216.18
930.02	5236.66
930.18	5232.56
930.35	5126.07
930.52	5148.59
930.69	5121.97
930.85	5111.73
931.02	4986.80
931.19	5091.25
931.36	5081.01
931.52	4947.89
931.69	5074.87
931.86	4874.17
932.02	4933.56
932.19	4816.82
932.36	4884.41
932.53	4788.15
932.69	4911.03
932.86	4849.59
933.03	4876.21
933.19	4818.87
933.36	4825.01
933.53	4724.66
933.70	4657.08
933.86	4741.05
934.03	4677.56
934.20	4581.31
934.36	4708.28
934.53	4673.46
934.70	4519.87
934.86	4513.72
935.03	4351.93
935.20	4364.22
935.36	4431.80
935.53	4353.98
935.70	4444.09
935.86	4411.32
936.03	4362.17
936.20	4204.48
936.36	4259.78
936.53	4292.54
936.70	4251.58
936.86	4239.30
937.03	4229.06
937.20	4126.66
937.36	4118.47
937.53	4034.50
937.70	4052.93
937.86	3946.44
938.03	3966.92
938.20	3942.34
938.36	3790.79
938.53	3956.68
938.70	3790.79
938.86	3837.89
939.03	3692.49
939.20	3735.50
939.36	3725.26
939.53	3741.64
939.70	3774.41
939.86	3719.11
940.03	3553.23
940.19	3520.46
940.36	3450.83
940.53	3426.25
940.69	3270.61
940.86	3467.21
941.03	3444.68
941.19	3391.44
941.36	3370.96
941.52	3248.08
941.69	3305.42
941.86	3203.02
942.02	3254.22
942.19	3117.01
942.35	3266.51
942.52	3168.21
942.69	3010.51
942.85	3155.92
943.02	3080.14
943.18	3162.06
943.35	3164.11
943.52	3043.28
943.68	3100.62
943.85	3102.67
944.01	2944.98
944.18	3061.71
944.35	2934.74
944.51	2963.41
944.68	2885.59
944.84	2944.98
945.01	2893.78
945.17	2957.27
945.34	2906.07
945.51	2910.16
945.67	2959.31
945.84	2856.92
946.00	2893.78
946.17	2879.44
946.33	2840.53
946.50	2852.82
946.67	2809.81
946.83	2846.68
947.00	2861.01
947.16	2775.00
947.33	2834.39
947.49	2781.14
947.66	2762.71
947.82	2793.43
947.99	2805.72
948.16	2830.29
948.32	2660.31
948.49	2830.29
948.65	2826.20
948.82	2775.00
948.98	2645.98
949.15	2709.46
949.31	2770.90
949.48	2772.95
949.64	2775.00
949.81	2766.81
949.97	2826.20
950.14	2738.13
950.30	2822.10
950.47	2777.05
950.63	2813.91
950.80	2697.17
950.96	2731.99
951.13	2777.05
951.30	2840.53
951.46	2850.77
951.63	2775.00
951.79	2725.85
951.96	2897.88
952.12	2830.29
952.29	2826.20
952.45	2711.51
952.62	2756.57
952.78	2777.05
952.94	2680.79
953.11	2756.57
953.27	2660.31
953.44	2711.51
953.60	2750.42
953.77	2775.00
953.93	2783.19
954.10	2713.56
954.26	2648.02
954.43	2731.99
954.59	2721.75
954.76	2760.66
954.92	2729.94
955.09	2738.13
955.25	2711.51
955.42	2693.08
955.58	2688.98
955.75	2699.22
955.91	2662.36
956.07	2584.54
956.24	2736.09
956.40	2633.69
956.57	2693.08
956.73	2691.03
956.90	2660.31
957.06	2609.11
957.23	2627.54
957.39	2670.55
957.56	2615.26
957.72	2605.02
957.88	2637.78
958.05	2588.63
958.21	2635.74
958.38	2682.84
958.54	2596.82
958.71	2738.13
958.87	2605.02
959.03	2684.89
959.20	2645.98
959.36	2582.49
959.53	2686.94
959.69	2633.69
959.85	2633.69
960.02	2729.94
960.18	2688.98
960.35	2637.78
960.51	2680.79
960.68	2607.06
960.84	2580.44
961.00	2615.26
961.17	2670.55
961.33	2566.10
961.50	2590.68
961.66	2504.67
961.82	2516.95
961.99	2596.82
962.15	2555.86
962.31	2521.05
962.48	2504.67
962.64	2596.82
962.81	2658.26
962.97	2570.20
963.13	2621.40
963.30	2545.63
963.46	2523.10
963.62	2533.34
963.79	2514.91
963.95	2572.25
964.12	2516.95
964.28	2422.75
964.44	2498.52
964.61	2570.20
964.77	2492.38
964.93	2611.16
965.10	2443.23
965.26	2494.43
965.42	2498.52
965.59	2549.72
965.75	2586.58
965.92	2500.57
966.08	2566.10
966.24	2537.43
966.41	2512.86
966.57	2568.15
966.73	2545.63
966.90	2592.73
967.06	2527.19
967.22	2480.09
967.39	2469.85
967.55	2467.80
967.71	2531.29
967.88	2418.65
968.04	2523.10
968.20	2432.99
968.37	2502.62
968.53	2447.32
968.69	2439.13
968.85	2525.15
969.02	2494.43
969.18	2559.96
969.34	2422.75
969.51	2506.71
969.67	2443.23
969.83	2396.12
970.00	2539.48
970.16	2516.95
970.32	2508.76
970.48	2566.10
970.65	2451.42
970.81	2496.47
970.97	2498.52
971.14	2459.61
971.30	2500.57
971.46	2369.50
971.63	2471.90
971.79	2473.95
971.95	2408.41
972.11	2379.74
972.28	2373.60
972.44	2383.84
972.60	2385.88
972.76	2453.47
972.93	2375.64
973.09	2506.71
973.25	2373.60
973.42	2402.27
973.58	2349.02
973.74	2449.37
973.90	2410.46
974.07	2383.84
974.23	2371.55
974.39	2326.49
974.55	2475.99
974.72	2398.17
974.88	2353.12
975.04	2437.08
975.20	2295.77
975.37	2367.45
975.53	2328.54
975.69	2338.78
975.85	2301.92
976.01	2394.08
976.18	2246.62
976.34	2242.53
976.50	2371.55
976.66	2353.12
976.83	2314.20
976.99	2353.12
977.15	2355.16
977.31	2238.43
977.47	2361.31
977.64	2375.64
977.80	2359.26
977.96	2299.87
978.12	2258.91
978.29	2275.29
978.45	2349.02
978.61	2394.08
978.77	2252.77
978.93	2367.45
979.10	2332.64
979.26	2295.77
979.42	2291.68
979.58	2314.20
979.74	2254.81
979.91	2301.92
980.07	2330.59
980.23	2381.79
980.39	2254.81
980.55	2209.76
980.71	2209.76
980.88	2250.72
981.04	2256.86
981.20	2271.20
981.36	2273.25
981.52	2275.29
981.68	2256.86
981.85	2244.57
982.01	2230.24
982.17	2275.29
982.33	2314.20
982.49	2234.33
982.65	2119.65
982.82	2230.24
982.98	2203.61
983.14	2131.94
983.30	2150.37
983.46	2172.89
983.62	2260.96
983.79	2181.09
983.95	2154.46
984.11	2082.78
984.27	2234.33
984.43	2295.77
984.59	2213.85
984.75	2187.23
984.91	2195.42
985.08	2152.42
985.24	2117.60
985.40	2179.04
985.56	2201.57
985.72	2242.53
985.88	2230.24
986.04	2164.70
986.20	2138.08
986.37	2144.22
986.53	2189.28
986.69	2222.05
986.85	2248.67
987.01	2176.99
987.17	2232.29
987.33	2185.18
987.49	2199.52
987.65	2209.76
987.82	2082.78
987.98	2176.99
988.14	2217.95
988.30	2154.46
988.46	2113.50
988.62	2131.94
988.78	2121.70
988.94	2240.48
989.10	2119.65
989.26	2060.26
989.42	2193.37
989.59	2095.07
989.75	2045.92
989.91	2166.75
990.07	2129.89
990.23	2111.46
990.39	2150.37
990.55	2123.74
990.71	2166.75
990.87	2121.70
991.03	2107.36
991.19	1994.72
991.35	2025.44
991.51	2064.35
991.67	2162.66
991.83	2123.74
992.00	2027.49
992.16	2088.93
992.32	2082.78
992.48	2074.59
992.64	2058.21
992.80	2076.64
992.96	2080.74
993.12	2060.26
993.28	2052.06
993.44	2072.54
993.60	2093.02
993.76	2066.40
993.92	2095.07
994.08	2017.25
994.24	2078.69
994.40	2031.58
994.56	2084.83
994.72	2129.89
994.88	2101.22
995.04	2144.22
995.20	1974.24
995.36	2115.55
995.52	2090.98
995.68	2068.45
995.84	2031.58
996.00	2076.64
996.16	1990.63
996.32	2013.15
996.48	2078.69
996.64	2084.83
996.80	2017.25
996.96	2119.65
997.12	2037.73
997.28	2101.22
997.44	2056.16
997.60	1986.53
997.76	1947.62
997.92	1935.33
998.08	1933.28
998.24	2009.06
998.40	2007.01
998.56	1920.99
998.72	1972.19
998.88	2031.58
999.04	2076.64
999.20	2009.06
999.36	1976.29
999.52	1982.43
999.68	2064.35
999.84	1902.56
1000.00	1996.77
1000.16	2072.54
1000.32	2017.25
1000.48	1992.67
1000.64	1810.40
1000.80	1994.72
1000.95	1929.19
1001.11	1988.58
1001.27	1804.26
1001.43	2041.82
1001.59	1951.71
1001.75	1920.99
1001.91	2041.82
1002.07	1904.61
1002.23	1873.89
1002.39	1910.75
1002.55	1916.90
1002.71	1925.09
1002.87	1916.90
1003.03	1982.43
1003.19	1923.04
1003.34	1959.91
1003.50	1986.53
1003.66	1927.14
1003.82	1886.18
1003.98	1882.08
1004.14	1912.80
1004.30	1925.09
1004.46	1877.99
1004.62	1871.84
1004.78	1912.80
1004.94	1949.67
1005.09	1918.95
1005.25	1914.85
1005.41	1918.95
1005.57	1873.89
1005.73	1882.08
1005.89	1978.34
1006.05	1949.67
1006.21	1951.71
1006.37	1826.79
1006.52	1923.04
1006.68	1875.94
1006.84	1920.99
1007.00	1906.66
1007.16	1953.76
1007.32	1843.17
1007.48	1877.99
1007.64	1884.13
1007.79	1912.80
1007.95	1871.84
1008.11	1923.04
1008.27	1904.61
1008.43	1968.10
1008.59	1914.85
1008.75	1900.52
1008.91	1894.37
1009.06	1914.85
1009.22	1914.85
1009.38	1892.32
1009.54	1824.74
1009.70	1869.80
1009.86	1937.38
1010.01	1882.08
1010.17	1898.47
1010.33	1898.47
1010.49	1820.64
1010.65	1841.12
1010.81	1837.03
1010.96	1791.97
1011.12	1830.88
1011.28	1900.52
1011.44	1843.17
1011.60	1832.93
1011.76	1828.84
1011.91	1855.46
1012.07	1906.66
1012.23	1820.64
1012.39	1748.97
1012.55	1877.99
1012.71	1865.70
1012.86	1837.03
1013.02	1851.36
1013.18	1751.01
1013.34	1816.55
1013.50	1880.04
1013.65	1837.03
1013.81	1742.82
1013.97	1789.92
1014.13	1796.07
1014.29	1775.59
1014.44	1818.60
1014.60	1814.50
1014.76	1796.07
1014.92	1826.79
1015.07	1802.21
1015.23	1751.01
1015.39	1843.17
1015.55	1726.44
1015.71	1808.36
1015.86	1787.88
1016.02	1763.30
1016.18	1763.30
1016.34	1753.06
1016.49	1839.08
1016.65	1837.03
1016.81	1779.68
1016.97	1822.69
1017.12	1800.16
1017.28	1761.25
1017.44	1798.12
1017.60	1845.22
1017.75	1785.83
1017.91	1681.38
1018.07	1771.49
1018.23	1755.11
1018.38	1769.44
1018.54	1849.32
1018.70	1800.16
1018.86	1728.49
1019.01	1763.30
1019.17	1738.73
1019.33	1832.93
1019.49	1751.01
1019.64	1804.26
1019.80	1822.69
1019.96	1832.93
1020.12	1677.29
1020.27	1730.53
1020.43	1683.43
1020.59	1755.11
1020.74	1724.39
1020.90	1708.01
1021.06	1681.38
1021.22	1800.16
1021.37	1744.87
1021.53	1720.29
1021.69	1789.92
1021.84	1746.92
1022.00	1755.11
1022.16	1734.63
1022.31	1716.20
1022.47	1787.88
1022.63	1746.92
1022.79	1683.43
1022.94	1673.19
1023.10	1798.12
1023.26	1689.57
1023.41	1705.96
1023.57	1679.33
1023.73	1773.54
1023.88	1673.19
1024.04	1701.86
1024.20	1724.39
1024.35	1728.49
1024.51	1716.20
1024.67	1673.19
1024.82	1730.53
1024.98	1728.49
1025.14	1794.02
1025.29	1695.72
1025.45	1712.10
1025.61	1740.77
1025.76	1769.44
1025.92	1746.92
1026.08	1718.25
1026.23	1736.68
1026.39	1757.16
1026.55	1714.15
1026.70	1650.66
1026.86	1701.86
1027.02	1738.73
1027.17	1660.90
1027.33	1714.15
1027.48	1683.43
1027.64	1759.21
1027.80	1705.96
1027.95	1728.49
1028.11	1605.61
1028.27	1738.73
1028.42	1695.72
1028.58	1708.01
1028.73	1718.25
1028.89	1710.05
1029.05	1773.54
1029.20	1665.00
>>>>>End Processed Spectral Data<<<<<
