SpectraSuite Data File
++++++++++++++++++++++++++++++++++++
Date: Tue Jun 13 12:02:25 CEST 2017
User: INFO_000
Dark Spectrum Present: No
Reference Spectrum Present: No
Number of Sampled Component Spectra: 1
Spectrometers: USB4H00879
Integration Time (usec): 30000 (USB4H00879)
Spectra Averaged: 1 (USB4H00879)
Boxcar Smoothing: 0 (USB4H00879)
Correct for Electrical Dark: No (USB4H00879)
Strobe/Lamp Enabled: No (USB4H00879)
Correct for Detector Non-linearity: No (USB4H00879)
Correct for Stray Light: No (USB4H00879)
Number of Pixels in Processed Spectrum: 3648
>>>>>Begin Processed Spectral Data<<<<<
345.13	1300.46
345.34	1300.46
345.56	1300.46
345.78	1384.43
345.99	1318.89
346.21	1499.11
346.42	1476.59
346.64	1562.60
346.86	1628.14
347.07	1482.73
347.29	1499.11
347.50	1495.02
347.72	1527.78
347.94	1578.98
348.15	1476.59
348.37	1503.21
348.59	1513.45
348.80	1554.41
349.02	1550.31
349.23	1617.90
349.45	1558.50
349.67	1568.74
349.88	1589.22
350.10	1589.22
350.31	1597.42
350.53	1624.04
350.75	1658.85
350.96	1599.46
351.18	1675.24
351.39	1617.90
351.61	1591.27
351.82	1632.23
352.04	1705.96
352.26	1619.94
352.47	1607.66
352.69	1619.94
352.90	1621.99
353.12	1628.14
353.34	1558.50
353.55	1609.70
353.77	1638.38
353.98	1632.23
354.20	1589.22
354.41	1572.84
354.63	1654.76
354.85	1650.66
355.06	1578.98
355.28	1611.75
355.49	1611.75
355.71	1583.08
355.92	1681.38
356.14	1597.42
356.35	1626.09
356.57	1638.38
356.79	1648.61
357.00	1656.81
357.22	1667.05
357.43	1644.52
357.65	1615.85
357.86	1521.64
358.08	1630.18
358.29	1603.56
358.51	1730.53
358.72	1644.52
358.94	1591.27
359.16	1624.04
359.37	1703.91
359.59	1642.47
359.80	1667.05
360.02	1681.38
360.23	1550.31
360.45	1697.77
360.66	1693.67
360.88	1654.76
361.09	1646.57
361.31	1665.00
361.52	1638.38
361.74	1697.77
361.95	1738.73
362.17	1611.75
362.38	1703.91
362.60	1732.58
362.81	1681.38
363.03	1648.61
363.24	1677.29
363.46	1683.43
363.67	1644.52
363.89	1621.99
364.10	1757.16
364.32	1671.14
364.53	1720.29
364.75	1601.51
364.96	1716.20
365.18	1679.33
365.39	1730.53
365.61	1599.46
365.82	1699.81
366.04	1716.20
366.25	1685.48
366.47	1771.49
366.68	1681.38
366.90	1701.86
367.11	1734.63
367.33	1791.97
367.54	1679.33
367.76	1722.34
367.97	1753.06
368.19	1691.62
368.40	1789.92
368.62	1718.25
368.83	1662.95
369.05	1734.63
369.26	1685.48
369.48	1650.66
369.69	1611.75
369.91	1777.64
370.12	1787.88
370.33	1748.97
370.55	1691.62
370.76	1810.40
370.98	1710.05
371.19	1654.76
371.41	1746.92
371.62	1781.73
371.84	1755.11
372.05	1765.35
372.27	1722.34
372.48	1732.58
372.69	1693.67
372.91	1773.54
373.12	1730.53
373.34	1789.92
373.55	1808.36
373.77	1791.97
373.98	1751.01
374.20	1834.98
374.41	1804.26
374.62	1759.21
374.84	1820.64
375.05	1791.97
375.27	1796.07
375.48	1804.26
375.70	1818.60
375.91	1853.41
376.12	1890.28
376.34	1847.27
376.55	1753.06
376.77	1839.08
376.98	1697.77
377.19	1812.45
377.41	1814.50
377.62	1769.44
377.84	1863.65
378.05	1931.23
378.27	1773.54
378.48	1912.80
378.69	1777.64
378.91	1863.65
379.12	1871.84
379.34	1855.46
379.55	1906.66
379.76	1791.97
379.98	1865.70
380.19	1873.89
380.41	1906.66
380.62	1861.60
380.83	1822.69
381.05	1812.45
381.26	1984.48
381.47	1853.41
381.69	1914.85
381.90	1875.94
382.12	1904.61
382.33	1912.80
382.54	1869.80
382.76	1947.62
382.97	1941.47
383.19	1978.34
383.40	1976.29
383.61	1925.09
383.83	1896.42
384.04	1941.47
384.25	2000.87
384.47	1916.90
384.68	1927.14
384.89	1980.39
385.11	1955.81
385.32	1949.67
385.54	1966.05
385.75	1964.00
385.96	1961.95
386.18	2045.92
386.39	1957.86
386.60	1986.53
386.82	1994.72
387.03	2078.69
387.24	2088.93
387.46	2025.44
387.67	2074.59
387.88	1982.43
388.10	2000.87
388.31	2037.73
388.52	2062.30
388.74	2095.07
388.95	2074.59
389.16	2029.54
389.38	2056.16
389.59	2058.21
389.80	2076.64
390.02	2103.26
390.23	2154.46
390.44	2107.36
390.66	2076.64
390.87	2082.78
391.08	2099.17
391.30	2158.56
391.51	2222.05
391.72	2170.85
391.94	2213.85
392.15	2193.37
392.36	2148.32
392.58	2133.98
392.79	2158.56
393.00	2123.74
393.22	2185.18
393.43	2166.75
393.64	2248.67
393.85	2279.39
394.07	2306.01
394.28	2291.68
394.49	2158.56
394.71	2328.54
394.92	2392.03
395.13	2217.95
395.35	2228.19
395.56	2246.62
395.77	2263.01
395.98	2170.85
396.20	2357.21
396.41	2375.64
396.62	2361.31
396.84	2318.30
397.05	2285.53
397.26	2320.35
397.47	2334.68
397.69	2349.02
397.90	2422.75
398.11	2379.74
398.32	2471.90
398.54	2377.69
398.75	2416.60
398.96	2367.45
399.18	2504.67
399.39	2406.36
399.60	2539.48
399.81	2383.84
400.03	2400.22
400.24	2529.24
400.45	2437.08
400.66	2516.95
400.88	2529.24
401.09	2549.72
401.30	2576.34
401.51	2607.06
401.73	2535.39
401.94	2537.43
402.15	2562.01
402.36	2574.30
402.58	2535.39
402.79	2590.68
403.00	2566.10
403.21	2650.07
403.43	2664.41
403.64	2609.11
403.85	2568.15
404.06	2631.64
404.27	2605.02
404.49	2570.20
404.70	2570.20
404.91	2615.26
405.12	2695.13
405.34	2627.54
405.55	2684.89
405.76	2537.43
405.97	2674.65
406.19	2734.04
406.40	2701.27
406.61	2764.76
406.82	2754.52
407.03	2789.33
407.25	2660.31
407.46	2725.85
407.67	2818.00
407.88	2691.03
408.09	2705.37
408.31	2693.08
408.52	2875.35
408.73	2768.85
408.94	2770.90
409.15	2822.10
409.37	2955.22
409.58	2801.62
409.79	2815.96
410.00	2885.59
410.21	2797.53
410.43	2801.62
410.64	2924.50
410.85	2930.64
411.06	2895.83
411.27	2953.17
411.48	2901.97
411.70	2916.31
411.91	2973.65
412.12	3024.85
412.33	2824.15
412.54	2934.74
412.76	3065.81
412.97	3000.27
413.18	2895.83
413.39	3002.32
413.60	3039.19
413.81	3026.90
414.03	3055.57
414.24	3147.73
414.45	3186.64
414.66	2924.50
414.87	3006.42
415.08	3061.71
415.30	3063.76
415.51	3047.38
415.72	3037.14
415.93	3033.04
416.14	3002.32
416.35	3069.91
416.56	3078.10
416.78	3168.21
416.99	3225.55
417.20	3137.49
417.41	3225.55
417.62	3198.93
417.83	3170.26
418.04	3219.41
418.26	3258.32
418.47	3155.92
418.68	3246.03
418.89	3200.98
419.10	3284.94
419.31	3327.95
419.52	3397.58
419.73	3413.96
419.95	3375.05
420.16	3262.41
420.37	3307.47
420.58	3360.72
420.79	3221.45
421.00	3424.20
421.21	3467.21
421.42	3352.52
421.63	3436.49
421.85	3424.20
422.06	3430.35
422.27	3506.12
422.48	3426.25
422.69	3444.68
422.90	3432.40
423.11	3524.55
423.32	3530.70
423.53	3581.90
423.75	3557.32
423.96	3655.62
424.17	3573.71
424.38	3633.10
424.59	3655.62
424.80	3805.13
425.01	3661.77
425.22	3676.10
425.43	3655.62
425.64	3882.95
425.85	3872.71
426.06	3805.13
426.28	3760.07
426.49	3753.93
426.70	3749.83
426.91	3860.42
427.12	3841.99
427.33	3782.60
427.54	3876.80
427.75	3825.61
427.96	3975.11
428.17	3870.66
428.38	3895.24
428.59	4018.11
428.80	3942.34
429.01	3938.24
429.23	4065.22
429.44	4181.95
429.65	4089.79
429.86	4128.70
430.07	3975.11
430.28	4036.55
430.49	4083.65
430.70	4247.49
430.91	4261.82
431.12	4112.32
431.33	4353.98
431.54	4327.36
431.75	4220.86
431.96	4298.69
432.17	4218.82
432.38	4272.06
432.59	4440.00
432.80	4247.49
433.01	4419.52
433.22	4296.64
433.43	4222.91
433.64	4360.13
433.85	4317.12
434.06	4446.14
434.27	4270.01
434.49	4454.33
434.70	4581.31
434.91	4474.81
435.12	4566.97
435.33	4478.91
435.54	4569.02
435.75	4446.14
435.96	4495.29
436.17	4435.90
436.38	4530.11
436.59	4679.61
436.80	4683.70
437.01	4874.17
437.22	4751.29
437.43	4665.27
437.64	4581.31
437.85	4816.82
438.06	4747.19
438.27	4689.85
438.48	4884.41
438.69	4743.10
438.90	4814.77
439.11	4927.41
439.32	4906.93
439.53	4857.78
439.74	4837.30
439.95	4822.97
440.16	4976.56
440.37	4841.40
440.57	4949.94
440.78	5033.91
440.99	4919.22
441.20	4999.09
441.41	4968.37
441.62	5052.34
441.83	4937.65
442.04	5042.10
442.25	5033.91
442.46	5119.92
442.67	5273.52
442.88	5478.32
443.09	5099.44
443.30	5195.70
443.51	5134.26
443.72	5449.64
443.93	5191.60
444.14	5402.54
444.35	5324.72
444.56	5273.52
444.77	5343.15
444.98	5382.06
445.19	5445.55
445.40	5484.46
445.61	5359.53
445.81	5439.40
446.02	5453.74
446.23	5312.43
446.44	5277.62
446.65	5488.56
446.86	5498.80
447.07	5359.53
447.28	5732.26
447.49	5588.91
447.70	5404.59
447.91	5590.95
448.12	5527.47
448.33	5652.39
448.54	5818.28
448.74	5629.87
448.95	5660.59
449.16	5701.54
449.37	5922.73
449.58	5709.74
449.79	5902.25
450.00	5685.16
450.21	5988.26
450.42	6029.22
450.63	5935.01
450.84	5855.14
451.05	5789.61
451.25	5959.59
451.46	5877.67
451.67	6068.13
451.88	5932.97
452.09	6168.48
452.30	5892.01
452.51	5988.26
452.72	6074.28
452.93	6238.11
453.13	6068.13
453.34	6131.62
453.55	6205.35
453.76	5994.40
453.97	6385.57
454.18	6135.71
454.39	6225.82
454.60	6334.37
454.81	6227.87
455.01	6664.09
455.22	6252.45
455.43	6588.32
455.64	6588.32
455.85	6680.47
456.06	6821.78
456.27	6430.62
456.48	6547.36
456.68	6680.47
456.89	6522.78
457.10	6725.53
457.31	6791.06
457.52	6522.78
457.73	6821.78
457.94	7012.24
458.14	6739.87
458.35	7049.11
458.56	6817.69
458.77	6825.88
458.98	7028.63
459.19	7014.29
459.39	7061.40
459.60	7188.37
459.81	7110.55
460.02	7251.86
460.23	7171.99
460.44	7276.43
460.65	7315.34
460.85	7364.50
461.06	7333.78
461.27	7253.91
461.48	7405.46
461.69	7548.81
461.89	7374.74
462.10	7415.69
462.31	7303.06
462.52	7438.22
462.73	7479.18
462.94	7671.69
463.14	7718.79
463.35	7595.92
463.56	7972.74
463.77	7853.96
463.98	7946.12
464.18	7751.56
464.39	7913.35
464.60	8058.76
464.81	8161.16
465.02	8021.89
465.23	8204.16
465.43	8089.48
465.64	8179.59
465.85	8200.07
466.06	8263.55
466.27	8499.07
466.47	8464.25
466.68	8439.68
466.89	8382.34
467.10	8521.60
467.30	8546.17
467.51	8628.09
467.72	8767.35
467.93	8572.80
468.14	8630.14
468.34	8775.55
468.55	8775.55
468.76	8929.14
468.97	8894.33
469.17	8894.33
469.38	8994.68
469.59	9205.62
469.80	9006.97
470.01	9117.56
470.21	9119.60
470.42	9299.83
470.63	9523.05
470.84	9232.24
471.04	9469.81
471.25	9547.63
471.46	9404.27
471.67	9777.00
471.87	9682.80
472.08	9766.76
472.29	9867.11
472.50	9443.18
472.70	9721.71
472.91	9897.83
473.12	9949.03
473.33	10026.86
473.53	10295.14
473.74	10030.95
473.95	10377.06
474.16	10473.31
474.36	10352.48
474.57	10379.11
474.78	10635.10
474.99	10493.79
475.19	10585.95
475.40	10811.23
475.61	11169.62
475.81	10903.39
476.02	11296.60
476.23	11022.17
476.44	11120.47
476.64	11292.50
476.85	11548.50
477.06	11388.75
477.27	11650.89
477.47	11525.97
477.68	11650.89
477.89	11781.96
478.09	11683.66
478.30	11784.01
478.51	11784.01
478.71	11939.66
478.92	11966.28
479.13	12255.04
479.34	12207.94
479.54	12230.47
479.75	12402.50
479.96	12240.71
480.16	12515.14
480.37	12420.93
480.58	12652.35
480.78	12764.99
480.99	12695.36
481.20	12930.87
481.41	12912.44
481.61	13127.48
481.82	12918.59
482.03	13094.71
482.23	13178.68
482.44	13414.20
482.65	13461.30
482.85	13551.41
483.06	13498.16
483.27	13684.53
483.47	13575.98
483.68	13858.60
483.89	13936.43
484.09	14163.75
484.30	13969.19
484.51	14024.49
484.71	14417.70
484.92	14130.98
485.13	14231.33
485.33	14516.00
485.54	14294.82
485.75	14552.87
485.95	14642.98
486.16	14753.57
486.37	14673.70
486.57	14962.46
486.78	14993.18
486.98	14812.96
487.19	14997.28
487.40	15111.96
487.60	15310.61
487.81	15562.51
488.02	15195.93
488.22	15206.17
488.43	15327.00
488.64	15539.99
488.84	15765.26
489.05	15564.56
489.25	15769.36
489.46	15925.00
489.67	15974.16
489.87	16086.79
490.08	16031.50
490.29	16299.78
490.49	16428.81
490.70	16404.23
490.90	16469.76
491.11	16514.82
491.32	16523.01
491.52	16641.79
491.73	16934.65
491.94	16873.21
492.14	16705.28
492.35	17153.79
492.55	17170.17
492.76	17127.16
492.97	17254.14
493.17	17030.91
493.38	17342.20
493.58	17374.97
493.79	17653.49
494.00	17571.57
494.20	17751.79
494.41	17590.00
494.61	17919.73
494.82	17665.78
495.02	17905.39
495.23	17940.21
495.44	18075.37
495.64	18239.21
495.85	18411.24
496.05	18396.90
496.26	18159.34
496.47	18470.63
496.67	18325.22
496.88	18644.71
497.08	18538.21
497.29	18728.67
497.49	18532.07
497.70	18765.54
497.91	18941.66
498.11	18884.32
498.32	19070.68
498.52	19027.68
498.73	19465.94
498.93	19076.83
499.14	19177.18
499.34	19265.24
499.55	19521.24
499.76	19367.64
499.96	19539.67
500.17	19627.73
500.37	19441.37
500.58	19805.91
500.78	19625.68
500.99	20203.21
501.19	20109.01
501.40	19990.22
501.60	19961.55
501.81	20086.48
502.02	20086.48
502.22	20143.82
502.43	20270.79
502.63	20369.10
502.84	20307.66
503.04	20072.14
503.25	20557.51
503.45	20336.33
503.66	20936.38
503.86	20549.32
504.07	20758.21
504.27	20621.00
504.48	21106.37
504.68	20879.04
504.89	21046.97
505.09	21227.20
505.30	21038.78
505.50	21210.81
505.71	21360.31
505.91	21153.47
506.12	21247.68
506.32	21079.74
506.53	21487.29
506.73	21427.90
506.94	21583.54
507.14	21431.99
507.35	21591.73
507.55	21749.43
507.76	21874.35
507.96	21657.27
508.17	21780.15
508.37	21839.54
508.58	21606.07
508.78	21941.94
508.99	22212.27
509.19	22173.36
509.40	22249.13
509.60	22058.67
509.81	22322.86
510.01	22286.00
510.22	22171.31
510.42	22199.98
510.63	22406.83
510.83	22367.91
511.04	22378.15
511.24	22406.83
511.44	22826.66
511.65	22918.82
511.85	22578.86
512.06	22634.15
512.26	22859.43
512.47	22900.39
512.67	22967.97
512.88	22619.81
513.08	22916.77
513.29	23121.57
513.49	22910.63
513.69	22976.16
513.90	23170.72
514.10	23228.06
514.31	23119.52
514.51	23201.44
514.72	23168.67
514.92	23369.37
515.13	23533.21
515.33	23445.15
515.53	23379.61
515.74	23447.19
515.94	23219.87
516.15	23432.86
516.35	23678.61
516.56	23791.25
516.76	23553.69
516.96	23692.95
517.17	24098.45
517.37	23858.84
517.58	24002.19
517.78	23840.40
517.99	23963.28
518.19	24006.29
518.39	24120.98
518.60	24430.22
518.80	24080.02
519.01	24419.98
519.21	24250.00
519.41	24792.71
519.62	24217.23
519.82	24729.22
520.03	24452.75
520.23	24522.38
520.43	24716.93
520.64	24915.59
520.84	25050.75
521.05	24637.06
521.25	25167.49
521.45	25093.76
521.66	25323.13
521.86	24858.24
522.07	25222.78
522.27	25151.10
522.47	25392.76
522.68	25517.69
522.88	25525.88
523.08	25869.94
523.29	25615.99
523.49	25693.82
523.70	25532.03
523.90	25777.78
524.10	25810.55
524.31	26150.51
524.51	25890.42
524.71	26326.64
524.92	25992.82
525.12	26265.20
525.33	26472.04
525.53	26551.91
525.73	26625.64
525.94	26562.15
526.14	26496.62
526.34	26803.82
526.55	26568.30
526.75	26596.97
526.95	26562.15
527.16	26777.19
527.36	26666.60
527.56	26945.12
527.77	27127.39
527.97	27104.87
528.17	27113.06
528.38	27407.97
528.58	27328.10
528.78	27364.96
528.99	27324.00
529.19	27729.50
529.39	27391.58
529.60	27897.43
529.80	27702.87
530.00	27668.06
530.21	28010.07
530.41	27999.83
530.61	27821.66
530.82	27733.59
531.02	27893.33
531.22	28026.45
531.43	28038.74
531.63	28665.42
531.83	28739.15
532.04	28560.97
532.24	28773.96
532.44	29001.29
532.64	28442.19
532.85	29060.68
533.05	28894.79
533.25	29085.25
533.46	29083.20
533.66	29507.13
533.86	28964.42
534.07	29300.29
534.27	29634.11
534.47	29470.27
534.67	29525.57
534.88	29486.65
535.08	29425.22
535.28	29941.30
535.49	29818.42
535.69	29918.78
535.89	29929.02
536.09	29793.85
536.30	30137.91
536.50	30223.92
536.70	30266.93
536.91	30424.62
537.11	30635.56
537.31	30295.60
537.51	30330.42
537.72	30651.95
537.92	30664.24
538.12	30709.29
538.32	30627.37
538.53	30643.76
538.73	30770.73
538.93	30922.28
539.13	31131.17
539.34	31137.32
539.54	31104.55
539.74	31215.14
539.94	31260.20
540.15	31190.56
540.35	31516.19
540.55	31409.70
540.75	32077.33
540.96	31657.50
541.16	31581.73
541.36	31677.98
541.56	31694.36
541.77	31862.30
541.97	31606.30
542.17	31651.36
542.37	32013.85
542.58	32163.35
542.78	32218.64
542.98	32085.53
543.18	32257.56
543.38	32515.60
543.59	32767.50
543.79	32296.47
543.99	32450.06
544.19	32607.76
544.40	32765.45
544.60	32773.64
544.80	32710.16
545.00	32523.79
545.20	33031.69
545.41	32953.87
545.61	32960.01
545.81	33291.78
546.01	33426.95
546.21	33355.27
546.42	32724.49
546.62	33037.83
546.82	33113.61
547.02	33412.61
547.22	33424.90
547.43	33605.12
547.63	33459.71
547.83	33605.12
548.03	33150.47
548.23	33818.11
548.44	33426.95
548.64	33832.44
548.84	33930.75
549.04	33357.32
549.24	34006.52
549.45	33719.81
549.65	33713.66
549.85	33930.75
550.05	33994.23
550.25	33699.33
550.45	34493.94
550.66	33840.64
550.86	34115.06
551.06	34133.50
551.26	34311.67
551.46	34285.04
551.66	34422.26
551.87	34422.26
552.07	34600.43
552.27	34493.94
552.47	34526.71
552.67	34723.31
552.87	34225.65
553.07	34631.15
553.28	34682.35
553.48	34665.97
553.68	34915.82
553.88	34745.84
554.08	34983.40
554.28	34616.82
554.48	34567.66
554.69	34647.54
554.89	34858.48
555.09	34911.72
555.29	34698.73
555.49	35061.22
555.69	35177.96
555.89	34924.01
556.10	35038.70
556.30	35020.27
556.50	35089.90
556.70	34731.50
556.90	35192.30
557.10	35274.21
557.30	35173.86
557.50	35554.79
557.70	35214.82
557.91	35726.81
558.11	35341.80
558.31	35462.63
558.51	35409.38
558.71	35587.55
558.91	35644.90
559.11	35489.25
559.31	35454.44
559.51	35335.65
559.72	35358.18
559.92	35622.37
560.12	35327.46
560.32	35718.62
560.52	35685.86
560.72	36148.70
560.92	35827.17
561.12	35966.43
561.32	36177.37
561.52	35706.34
561.72	36318.68
561.93	36132.31
562.13	35970.52
562.33	35603.94
562.53	36335.06
562.73	36103.64
562.93	36056.54
563.13	35988.95
563.33	35882.46
563.53	36079.07
563.73	35562.98
563.93	35874.27
564.13	36470.23
564.33	36263.38
564.53	36187.61
564.74	36283.86
564.94	36410.84
565.14	36392.40
565.34	35927.52
565.54	36416.98
565.74	36507.09
565.94	36316.63
566.14	36144.60
566.34	36171.22
566.54	36736.46
566.74	36359.64
566.94	36404.69
567.14	36388.31
567.34	36574.67
567.54	36414.93
567.74	36294.10
567.94	36462.04
568.14	36785.61
568.34	36515.28
568.54	36660.69
568.74	36734.42
568.94	36632.02
569.14	37027.28
569.34	36677.07
569.54	36808.14
569.75	36945.36
569.95	36865.49
570.15	37418.44
570.35	37105.10
570.55	37057.99
570.75	36857.29
570.95	37129.67
571.15	37135.82
571.35	37057.99
571.55	37404.10
571.75	37537.22
571.95	37213.64
572.15	37148.11
572.35	37131.72
572.55	37160.39
572.75	37316.04
572.95	37678.53
573.15	37553.60
573.35	37262.79
573.55	37178.82
573.75	37402.05
573.95	37352.90
574.15	37414.34
574.35	37512.64
574.55	37592.51
574.75	37578.18
574.95	37547.46
575.15	37879.23
575.34	37823.93
575.54	37737.92
575.74	37950.91
575.94	37836.22
576.14	37604.80
576.34	38110.65
576.54	38108.60
576.74	37717.44
576.94	37895.61
577.14	38075.84
577.34	38120.89
577.54	37426.63
577.74	37965.24
577.94	38120.89
578.14	38028.73
578.34	38176.19
578.54	38004.16
578.74	38036.92
578.94	38583.73
579.14	38069.69
579.34	38028.73
579.54	38471.09
579.74	38530.48
579.94	38583.73
580.13	38200.76
580.33	38485.43
580.53	38790.58
580.73	38745.52
580.93	38446.52
581.13	38542.77
581.33	38434.23
581.53	38940.08
581.73	38372.79
581.93	39183.79
582.13	39005.61
582.33	38923.69
582.53	38694.32
582.73	38964.65
582.92	39167.40
583.12	39177.64
583.32	38972.85
583.52	38563.25
583.72	39552.42
583.92	39333.29
584.12	39140.78
584.32	39224.75
584.52	39140.78
584.72	39366.06
584.92	39574.95
585.11	39527.84
585.31	39562.66
585.51	39853.47
585.71	39622.05
585.91	39812.51
586.11	39495.08
586.31	39493.03
586.51	39577.00
586.71	39556.52
586.91	39718.31
587.10	39957.92
587.30	39947.68
587.50	40043.93
587.70	40009.12
587.90	39978.40
588.10	39959.97
588.30	39865.76
588.50	40119.71
588.69	39863.71
588.89	39527.84
589.09	40043.93
589.29	39839.14
589.49	40570.26
589.69	40252.83
589.89	40207.77
590.08	40005.02
590.28	40129.95
590.48	39937.44
590.68	39824.80
590.88	40570.26
591.08	40353.18
591.28	40170.91
591.47	40207.77
591.67	40478.10
591.87	40596.88
592.07	40510.87
592.27	40320.41
592.47	40570.26
592.67	40629.65
592.86	40299.93
593.06	40486.29
593.26	40502.68
593.46	40410.52
593.66	40699.28
593.86	40457.62
594.05	40373.66
594.25	40711.57
594.45	40428.95
594.65	40781.20
594.85	40299.93
595.05	40752.53
595.24	40727.95
595.44	40779.15
595.64	40879.50
595.84	40754.58
596.04	40754.58
596.23	40893.84
596.43	41342.35
596.63	40797.59
596.83	40953.23
597.03	41162.12
597.22	41444.74
597.42	40799.63
597.62	41244.04
597.82	41213.32
598.02	40875.41
598.21	41743.75
598.41	41131.40
598.61	41158.03
598.81	41239.95
599.01	41428.36
599.20	41366.92
599.40	41221.52
599.60	41594.25
599.80	41778.56
600.00	41491.85
600.19	41753.99
600.39	41604.49
600.59	41661.83
600.79	41569.67
600.98	41424.26
601.18	41588.10
601.38	41825.67
601.58	41747.84
601.78	42134.91
601.97	41848.19
602.17	42108.29
602.37	42128.77
602.57	41796.99
602.76	41966.98
602.96	42171.77
603.16	41909.63
603.36	42073.47
603.55	42397.05
603.75	42255.74
603.95	42532.22
604.15	42329.47
604.34	42081.66
604.54	42360.19
604.74	42241.40
604.94	42464.63
605.13	42503.54
605.33	42466.68
605.53	42245.50
605.73	42581.37
605.92	42288.51
606.12	42294.65
606.32	42603.89
606.52	42182.01
606.71	42644.85
606.91	42495.35
607.11	42757.49
607.30	42564.98
607.50	42673.52
607.70	42968.43
607.90	42589.56
608.09	42618.23
608.29	42980.72
608.49	42892.66
608.68	42728.82
608.88	42802.55
609.08	43083.12
609.28	42626.42
609.47	43062.64
609.67	43312.49
609.87	42775.92
610.06	43031.92
610.26	42691.96
610.46	43195.76
610.66	43005.30
610.85	42796.40
611.05	42605.94
611.25	42915.19
611.44	42888.56
611.64	42868.08
611.84	42681.72
612.03	42579.32
612.23	43130.22
612.43	43003.25
612.62	42741.11
612.82	42571.13
613.02	43195.76
613.21	43167.09
613.41	42773.88
613.61	42880.37
613.80	42913.14
614.00	43111.79
614.20	43412.84
614.39	43007.34
614.59	43113.84
614.79	42784.12
614.98	43062.64
615.18	43236.72
615.38	43158.89
615.57	43070.83
615.77	42925.42
615.97	42958.19
616.16	42771.83
616.36	42902.90
616.56	43238.76
616.75	43040.11
616.95	42626.42
617.15	42960.24
617.34	43306.35
617.54	42966.38
617.74	43316.59
617.93	43011.44
618.13	42640.76
618.32	43148.65
618.52	42990.96
618.72	42823.03
618.91	43441.51
619.11	42417.53
619.31	42898.80
619.50	42765.68
619.70	42935.66
619.90	42800.50
620.09	42470.78
620.29	42849.65
620.48	43099.50
620.68	43232.62
620.88	42935.66
621.07	42882.42
621.27	42661.24
621.46	42661.24
621.66	43050.35
621.86	42612.09
622.05	42341.75
622.25	43240.81
622.44	42521.98
622.64	42487.16
622.84	42980.72
623.03	42726.77
623.23	42655.09
623.42	42487.16
623.62	43179.37
623.82	42646.90
624.01	42239.36
624.21	42913.14
624.40	42685.81
624.60	42511.74
624.80	42732.92
624.99	42442.10
625.19	42311.03
625.38	42872.18
625.58	42302.84
625.77	42644.85
625.97	42458.49
626.17	42446.20
626.36	42657.14
626.56	42661.24
626.75	42096.00
626.95	42616.18
627.14	42519.93
627.34	42710.39
627.54	42331.51
627.73	42349.95
627.93	42429.82
628.12	42220.92
628.32	42423.67
628.51	42448.25
628.71	42950.00
628.90	42599.80
629.10	42345.85
629.30	42683.76
629.49	42390.91
629.69	42098.05
629.88	42208.64
630.08	42835.31
630.27	42519.93
630.47	42519.93
630.66	42257.79
630.86	42423.67
631.05	42282.36
631.25	42841.46
631.44	42481.02
631.64	42276.22
631.84	42161.53
632.03	42730.87
632.23	42368.38
632.42	42173.82
632.62	42509.69
632.81	42204.54
633.01	42362.23
633.20	42007.94
633.40	42315.13
633.59	42487.16
633.79	42476.92
633.98	42331.51
634.18	42300.79
634.37	42358.14
634.57	42640.76
634.76	42499.45
634.96	41934.21
635.15	42509.69
635.35	42194.30
635.54	42435.96
635.74	42829.17
635.93	42106.24
636.13	42382.71
636.32	42265.98
636.52	42020.22
636.71	42255.74
636.91	42030.46
637.10	42284.41
637.30	42325.37
637.49	41704.84
637.69	42034.56
637.88	42560.89
638.08	42263.93
638.27	42300.79
638.46	42126.72
638.66	42155.39
638.85	42161.53
639.05	42065.28
639.24	42450.30
639.44	41985.41
639.63	42243.45
639.83	42251.64
640.02	42020.22
640.22	42042.75
640.41	42290.55
640.61	41778.56
640.80	41989.50
640.99	42122.62
641.19	42552.69
641.38	41934.21
641.58	42198.40
641.77	42243.45
641.97	41733.51
642.16	42116.48
642.36	42220.92
642.55	42483.06
642.74	42020.22
642.94	42339.71
643.13	42241.40
643.33	42526.07
643.52	42513.78
643.72	42075.52
643.91	42710.39
644.10	42685.81
644.30	42990.96
644.49	42249.60
644.69	42782.07
644.88	42126.72
645.08	42233.21
645.27	42401.14
645.46	42169.72
645.66	42585.46
645.85	42458.49
646.05	42517.88
646.24	42386.81
646.43	42597.75
646.63	42816.88
646.82	42528.12
647.02	42433.91
647.21	42460.54
647.40	42151.29
647.60	42507.64
647.79	42554.74
647.99	42397.05
648.18	42343.80
648.37	42429.82
648.57	42718.58
648.76	42411.38
648.96	42339.71
649.15	42771.83
649.34	42550.65
649.54	42405.24
649.73	42206.59
649.92	42612.09
650.12	42052.99
650.31	42577.27
650.51	42251.64
650.70	42317.18
650.89	42378.62
651.09	42540.41
651.28	42333.56
651.47	42370.43
651.67	42407.29
651.86	43146.61
652.06	42216.83
652.25	42487.16
652.44	42530.17
652.64	42231.16
652.83	42270.08
653.02	42184.06
653.22	42141.05
653.41	42247.55
653.60	42308.99
653.80	42268.03
653.99	42493.30
654.18	42173.82
654.38	42423.67
654.57	42440.06
654.76	42401.14
654.96	42405.24
655.15	42263.93
655.34	42085.76
655.54	41751.94
655.73	42278.27
655.92	42683.76
656.12	42595.70
656.31	42089.85
656.50	42481.02
656.70	42245.50
656.89	42474.87
657.08	42388.86
657.28	42139.00
657.47	42216.83
657.66	42134.91
657.86	42083.71
658.05	42339.71
658.24	42634.61
658.43	41827.71
658.63	42503.54
658.82	42433.91
659.01	42390.91
659.21	42386.81
659.40	42448.25
659.59	41977.22
659.79	42411.38
659.98	42407.29
660.17	42280.31
660.36	41983.36
660.56	42452.34
660.75	42001.79
660.94	42300.79
661.14	42198.40
661.33	42276.22
661.52	42247.55
661.71	41928.06
661.91	42104.19
662.10	41782.66
662.29	42253.69
662.49	42012.03
662.68	42337.66
662.87	42438.01
663.06	42632.57
663.26	42044.80
663.45	42253.69
663.64	41973.12
663.83	42552.69
664.03	42020.22
664.22	41911.68
664.41	42059.13
664.60	41876.86
664.80	42018.17
664.99	42208.64
665.18	42042.75
665.37	41876.86
665.57	41995.65
665.76	41977.22
665.95	41858.43
666.14	42149.24
666.34	41643.40
666.53	42036.61
666.72	42204.54
666.91	41729.41
667.11	41620.87
667.30	41618.82
667.49	41579.91
667.68	42075.52
667.87	41536.90
668.07	41880.96
668.26	41928.06
668.45	42112.38
668.64	41395.59
668.84	41610.63
669.03	41786.75
669.22	41414.02
669.41	41616.77
669.60	41495.94
669.80	41616.77
669.99	41745.80
670.18	41491.85
670.37	42169.72
670.57	42102.14
670.76	41729.41
670.95	41549.19
671.14	41760.13
671.33	41575.81
671.53	42249.60
671.72	41518.47
671.91	41827.71
672.10	41383.30
672.29	41407.88
672.48	41522.57
672.68	41670.02
672.87	41385.35
673.06	41430.41
673.25	41438.60
673.44	41436.55
673.64	41033.10
673.83	41325.96
674.02	41596.29
674.21	41536.90
674.40	41541.00
674.59	41366.92
674.79	41608.58
674.98	41239.95
675.17	41219.47
675.36	40924.56
675.55	41608.58
675.74	41522.57
675.94	41457.03
676.13	41022.86
676.32	41112.97
676.51	41424.26
676.70	41031.05
676.89	40949.14
677.08	41305.48
677.28	41047.44
677.47	41438.60
677.66	41645.44
677.85	41022.86
678.04	41403.78
678.23	41289.10
678.42	40961.42
678.62	41239.95
678.81	40934.80
679.00	41061.77
679.19	41719.17
679.38	40994.19
679.57	40934.80
679.76	41182.60
679.96	40998.29
680.15	40574.36
680.34	40584.60
680.53	40977.81
680.72	40531.35
680.91	41143.69
681.10	40478.10
681.29	40877.46
681.48	40687.00
681.68	40580.50
681.87	40652.18
682.06	40779.15
682.25	40461.72
682.44	40461.72
682.63	40586.64
682.82	40570.26
683.01	40242.59
683.20	40398.23
683.39	40531.35
683.59	40326.55
683.78	40355.22
683.97	40179.10
684.16	40301.98
684.35	40132.00
684.54	40127.90
684.73	40576.40
684.92	40289.69
685.11	40314.26
685.30	39990.69
685.49	40359.32
685.69	40101.28
685.88	40175.00
686.07	40265.11
686.26	40308.12
686.45	40234.39
686.64	39984.54
686.83	40119.71
687.02	39888.29
687.21	40074.65
687.40	39906.72
687.59	39591.33
687.78	39978.40
687.97	39796.13
688.16	39765.41
688.35	39568.80
688.54	39613.86
688.74	39814.56
688.93	39603.62
689.12	39437.73
689.31	39527.84
689.50	39466.41
689.69	39589.28
689.88	39493.03
690.07	39570.85
690.26	39060.91
690.45	39759.27
690.64	39654.82
690.83	39577.00
691.02	39435.69
691.21	39546.28
691.40	39595.43
691.59	39609.76
691.78	39105.96
691.97	39460.26
692.16	39341.48
692.35	39382.44
692.54	39355.82
692.73	39335.34
692.92	39228.84
693.11	39040.43
693.30	38927.79
693.49	39275.94
693.68	39148.97
693.87	39308.71
694.06	38931.89
694.25	38940.08
694.44	38921.65
694.63	39167.40
694.82	38974.89
695.01	39073.20
695.20	38536.63
695.39	39042.48
695.58	38839.73
695.77	38374.84
695.96	38739.38
696.15	38606.26
696.34	38585.78
696.53	38806.96
696.72	38802.86
696.91	38739.38
697.10	38483.38
697.29	38503.86
697.48	38958.51
697.67	38766.00
697.86	38415.80
698.05	38409.65
698.24	38313.40
698.43	37971.39
698.62	38247.86
698.81	38057.40
699.00	38331.83
699.19	38016.44
699.38	37967.29
699.57	37805.50
699.76	38155.71
699.95	37664.19
700.14	38135.23
700.32	38073.79
700.51	37754.30
700.70	38200.76
700.89	37936.57
701.08	37916.09
701.27	38075.84
701.46	38030.78
701.65	37344.71
701.84	37821.89
702.03	38397.37
702.22	37526.98
702.41	37977.53
702.60	37606.85
702.79	37793.22
702.98	37520.84
703.17	37402.05
703.35	37576.13
703.54	37463.49
703.73	37803.46
703.92	37262.79
704.11	37483.97
704.30	37139.91
704.49	37262.79
704.68	37348.81
704.87	37307.85
705.06	37180.87
705.25	37410.25
705.43	37078.47
705.62	37221.83
705.81	37217.74
706.00	37160.39
706.19	37139.91
706.38	36994.51
706.57	36898.25
706.76	36898.25
706.95	36861.39
707.14	36820.43
707.32	36738.51
707.51	36597.20
707.70	36660.69
707.89	36971.98
708.08	36859.34
708.27	36556.24
708.46	36888.01
708.65	36392.40
708.84	36720.08
709.02	36765.14
709.21	36787.66
709.40	36707.79
709.59	36677.07
709.78	36513.23
709.97	36373.97
710.16	36644.30
710.34	36247.00
710.53	36025.82
710.72	36359.64
710.91	36382.16
711.10	36711.89
711.29	36406.74
711.48	36142.55
711.66	36322.77
711.85	35732.96
712.04	36328.92
712.23	36203.99
712.42	36048.35
712.61	35874.27
712.80	36081.11
712.98	36066.78
713.17	35876.32
713.36	35724.77
713.55	36089.31
713.74	35769.82
713.93	35839.45
714.11	35526.11
714.30	35909.08
714.49	35724.77
714.68	35843.55
714.87	35544.55
715.06	35827.17
715.24	35718.62
715.43	35675.62
715.62	35259.88
715.81	35589.60
716.00	35618.27
716.18	35403.24
716.37	35028.46
716.56	34989.55
716.75	35513.83
716.94	35198.44
717.12	34891.24
717.31	35089.90
717.50	35247.59
717.69	35106.28
717.88	34711.02
718.06	35202.53
718.25	34944.49
718.44	34780.65
718.63	34807.28
718.82	34969.07
719.00	34821.61
719.19	34659.82
719.38	34577.90
719.57	34625.01
719.76	34176.50
719.94	34221.56
720.13	34348.53
720.32	34260.47
720.51	34307.57
720.69	34246.13
720.88	34584.05
721.07	34192.89
721.26	33967.61
721.44	34131.45
721.63	33838.59
721.82	33926.65
722.01	33912.31
722.20	34070.01
722.38	33871.36
722.57	33361.41
722.76	33900.03
722.95	33666.56
723.13	33412.61
723.32	33459.71
723.51	33474.05
723.70	33082.89
723.88	33535.49
724.07	33234.44
724.26	33263.11
724.44	33261.06
724.63	33256.96
724.82	33398.27
725.01	33472.00
725.19	33121.80
725.38	33345.03
725.57	32728.59
725.76	33140.23
725.94	32857.61
726.13	32966.15
726.32	33127.94
726.51	32742.92
726.69	33361.41
726.88	33123.85
727.07	33048.07
727.25	32771.60
727.44	32822.80
727.63	33074.70
727.82	32781.84
728.00	32812.56
728.19	32851.47
728.38	32910.86
728.56	32642.57
728.75	32753.16
728.94	32878.09
729.12	32601.61
729.31	32601.61
729.50	32796.17
729.69	33269.25
729.87	32642.57
730.06	32284.18
730.25	32468.50
730.43	33248.77
730.62	32515.60
730.81	32648.72
730.99	32689.68
731.18	32605.71
731.37	32566.80
731.55	32351.76
731.74	32642.57
731.93	32677.39
732.11	32491.02
732.30	32597.52
732.49	32400.91
732.67	32744.97
732.86	32398.87
733.05	32812.56
733.23	32118.29
733.42	32144.92
733.61	32069.14
733.79	32079.38
733.98	32196.12
734.17	32226.84
734.35	32087.57
734.54	31950.36
734.73	32448.02
734.91	32003.61
735.10	31827.48
735.29	32108.05
735.47	31680.03
735.66	31907.35
735.84	31571.49
736.03	32003.61
736.22	32013.85
736.40	31913.50
736.59	31852.06
736.78	31634.97
736.96	31688.22
737.15	31745.56
737.33	31534.62
737.52	31446.56
737.71	31741.47
737.89	31774.24
738.08	31276.58
738.27	31274.53
738.45	31680.03
738.64	31372.83
738.82	31378.98
739.01	31309.35
739.20	31583.77
739.38	31477.28
739.57	31491.62
739.75	31473.18
739.94	31082.02
740.13	31508.00
740.31	31227.43
740.50	31268.39
740.68	31268.39
740.87	31669.79
741.06	31090.21
741.24	31069.73
741.43	31137.32
741.61	31106.60
741.80	31178.28
741.99	31243.81
742.17	31165.99
742.36	31028.77
742.54	30963.24
742.73	30811.69
742.91	30989.86
743.10	30828.07
743.29	30985.77
743.47	30731.82
743.66	31059.49
743.84	30922.28
744.03	30936.62
744.21	30631.47
744.40	31100.45
744.59	31059.49
744.77	30860.84
744.96	30127.67
745.14	30762.54
745.33	30625.32
745.51	30379.57
745.70	30625.32
745.88	30428.72
746.07	30645.80
746.26	30432.82
746.44	30643.76
746.63	30463.54
746.81	30299.70
747.00	30223.92
747.18	30574.13
747.37	30307.89
747.55	30158.39
747.74	30367.28
747.92	29922.87
748.11	29834.81
748.29	30172.72
748.48	30000.69
748.66	29787.71
748.85	30182.96
749.03	29959.73
749.22	30115.38
749.41	29992.50
749.59	30092.85
749.78	30318.13
749.96	29886.01
750.15	29609.53
750.33	30045.75
750.52	29976.12
750.70	29847.10
750.89	29726.27
751.07	29503.04
751.26	29836.86
751.44	29716.03
751.63	29632.06
751.81	29560.38
752.00	29621.82
752.18	29797.95
752.37	29738.55
752.55	29367.87
752.74	29580.86
752.92	29283.91
753.10	29371.97
753.29	29474.37
753.47	29578.81
753.66	29187.65
753.84	29625.92
754.03	29380.16
754.21	29234.75
754.40	29255.23
754.58	29249.09
754.77	29193.79
754.95	28974.66
755.14	29500.99
755.32	29322.82
755.51	28964.42
755.69	29185.60
755.88	28915.27
756.06	28972.61
756.24	28821.06
756.43	29181.51
756.61	28931.65
756.80	28700.23
756.98	28460.62
757.17	28773.96
757.35	28862.02
757.54	28976.71
757.72	28958.28
757.90	28753.48
758.09	28814.92
758.27	28704.33
758.46	28587.60
758.64	28595.79
758.83	28550.73
759.01	28565.07
759.19	28591.69
759.38	28581.45
759.56	28608.08
759.75	28536.40
759.93	28347.98
760.12	28098.13
760.30	28288.59
760.48	28552.78
760.67	28182.10
760.85	28372.56
761.04	28434.00
761.22	28522.06
761.40	28419.66
761.59	28081.75
761.77	28182.10
761.96	28118.61
762.14	28239.44
762.32	28282.45
762.51	28001.88
762.69	28016.21
762.88	28200.53
763.06	28010.07
763.24	28251.73
763.43	27848.28
763.61	27696.73
763.80	27768.41
763.98	27549.28
764.16	27846.23
764.35	27696.73
764.53	27414.11
764.72	27502.17
764.90	27522.65
765.08	27655.77
765.27	27627.10
765.45	27283.04
765.63	27182.69
765.82	27453.02
766.00	27123.30
766.18	27364.96
766.37	27233.89
766.55	27227.74
766.74	27489.88
766.92	27448.93
767.10	27604.57
767.29	27291.23
767.47	27307.62
767.65	27268.70
767.84	27078.24
768.02	27223.65
768.20	26932.84
768.39	27336.29
768.57	27139.68
768.75	26648.17
768.94	27072.10
769.12	27086.43
769.30	26738.28
769.49	27283.04
769.67	26703.46
769.85	26484.33
770.04	26697.32
770.22	26676.84
770.40	26527.34
770.59	26562.15
770.77	26523.24
770.95	26771.05
771.14	26590.83
771.32	26435.18
771.50	26394.22
771.69	26549.87
771.87	26533.48
772.05	26584.68
772.24	26140.27
772.42	26377.84
772.60	26293.87
772.78	26130.03
772.97	26115.70
773.15	26472.04
773.33	26478.19
773.52	26093.17
773.70	26412.65
773.88	26271.34
774.07	25945.72
774.25	26207.86
774.43	26269.30
774.61	26404.46
774.80	26338.93
774.98	26279.54
775.16	26148.46
775.34	26386.03
775.53	26236.53
775.71	26019.44
775.89	26216.05
776.08	26001.01
776.26	26154.61
776.44	26107.51
776.62	25919.09
776.81	26269.30
776.99	26203.76
777.17	26386.03
777.35	26263.15
777.54	26345.07
777.72	26261.10
777.90	26476.14
778.08	26300.01
778.27	26193.52
778.45	26408.56
778.63	26394.22
778.81	26091.12
779.00	26693.22
779.18	26170.99
779.36	26605.16
779.54	26564.20
779.73	26218.10
779.91	26424.94
780.09	26304.11
780.27	26621.55
780.46	26545.77
780.64	27016.80
780.82	26441.32
781.00	26478.19
781.19	26508.91
781.37	26719.85
781.55	26461.80
781.73	26900.07
781.91	26297.97
782.10	26443.37
782.28	26885.73
782.46	26506.86
782.64	26738.28
782.82	26537.58
783.01	26771.05
783.19	26654.31
783.37	26789.48
783.55	26599.02
783.74	26637.93
783.92	26437.23
784.10	26863.21
784.28	26965.60
784.46	26197.62
784.64	25964.15
784.83	26642.03
785.01	26816.10
785.19	26322.54
785.37	26564.20
785.55	26465.90
785.74	26293.87
785.92	26484.33
786.10	26572.39
786.28	26504.81
786.46	26295.92
786.64	26254.96
786.83	26457.71
787.01	26556.01
787.19	26377.84
787.37	26300.01
787.55	26355.31
787.74	25898.61
787.92	26238.58
788.10	26183.28
788.28	25976.44
788.46	26230.38
788.64	25828.98
788.82	26224.24
789.01	25994.87
789.19	25685.62
789.37	25632.38
789.55	26123.89
789.73	25650.81
789.91	25484.92
790.09	25556.60
790.28	25499.26
790.46	25859.70
790.64	25996.92
790.82	25464.44
791.00	25556.60
791.18	25550.46
791.36	25386.62
791.55	25785.97
791.73	25515.64
791.91	25312.89
792.09	25499.26
792.27	25126.53
792.45	25413.24
792.63	25091.71
792.81	24743.56
793.00	25237.12
793.18	25097.86
793.36	25056.90
793.54	25015.94
793.72	24854.15
793.90	25038.47
794.08	24741.51
794.26	24809.09
794.44	24737.41
794.62	24245.90
794.81	24794.76
794.99	24514.19
795.17	24262.29
795.35	24448.65
795.53	24628.87
795.71	24522.38
795.89	24407.69
796.07	24061.58
796.25	23975.57
796.43	23932.56
796.61	24098.45
796.80	23965.33
796.98	24182.42
797.16	23758.49
797.34	24176.27
797.52	23864.98
797.70	23883.41
797.88	23568.02
798.06	23762.58
798.24	23709.33
798.42	23498.39
798.60	23551.64
798.78	23269.02
798.96	23336.60
799.14	23230.11
799.32	23512.73
799.51	23092.90
799.69	23463.58
799.87	23223.97
800.05	23094.94
800.23	23090.85
800.41	22957.73
800.59	23158.43
800.77	22595.24
800.95	22773.41
801.13	22759.08
801.31	22644.39
801.49	22929.06
801.67	22589.10
801.85	22568.62
802.03	23056.03
802.21	22257.32
802.39	22488.74
802.57	22329.00
802.75	22322.86
802.93	22435.50
803.11	22095.53
803.29	22107.82
803.47	21948.08
803.65	22075.06
803.83	21935.79
804.01	22017.71
804.19	21898.93
804.37	21751.48
804.55	21907.12
804.73	21870.26
804.91	22128.30
805.09	21995.18
805.27	21843.63
805.45	21937.84
805.63	21644.98
805.81	21536.44
805.99	21870.26
806.17	21515.96
806.35	21524.15
806.53	21477.05
806.71	21636.79
806.89	21100.22
807.07	21360.31
807.25	21321.40
807.43	21288.64
807.61	21055.17
807.79	21376.70
807.97	20862.66
808.15	20915.90
808.33	21225.15
808.51	20893.38
808.69	21137.09
808.87	20868.80
809.05	20770.50
809.23	20762.31
809.41	20432.58
809.59	20598.47
809.77	20709.06
809.95	20567.75
810.13	20430.54
810.31	20426.44
810.49	20731.59
810.67	20371.15
810.84	20268.75
811.02	20354.76
811.20	20233.93
811.38	20305.61
811.56	20168.40
811.74	20256.46
811.92	20147.92
812.10	20260.55
812.28	20045.52
812.46	20096.72
812.64	20154.06
812.82	20084.43
813.00	20219.60
813.18	19908.30
813.36	19803.86
813.53	19984.08
813.71	19685.08
813.89	19773.14
814.07	19918.54
814.25	19648.21
814.43	19508.95
814.61	19672.79
814.79	19629.78
814.97	19398.36
815.15	19570.39
815.33	19316.44
815.50	19359.45
815.68	19695.32
815.86	19496.66
816.04	19320.54
816.22	19162.84
816.40	19326.68
816.58	19230.43
816.76	18953.95
816.94	19031.77
817.11	19211.99
817.29	19277.53
817.47	18900.70
817.65	18925.28
817.83	19091.16
818.01	18980.57
818.19	19009.25
818.37	18917.09
818.54	18673.38
818.72	18661.09
818.90	19130.08
819.08	18570.98
819.26	18624.23
819.44	18849.50
819.62	18931.42
819.80	18499.30
819.97	18495.21
820.15	18374.38
820.33	18454.25
820.51	18472.68
820.69	18284.26
820.87	18253.55
821.05	18523.88
821.22	18382.57
821.40	18317.03
821.58	18452.20
821.76	18190.06
821.94	18183.91
822.12	18263.79
822.29	18077.42
822.47	17905.39
822.65	18296.55
822.83	18095.85
823.01	18159.34
823.19	18058.99
823.36	17979.12
823.54	17944.30
823.72	18077.42
823.90	18052.84
824.08	17690.35
824.25	18179.82
824.43	17739.51
824.61	17901.29
824.79	17581.81
824.97	17415.93
825.15	17587.96
825.32	17678.07
825.50	17655.54
825.68	17637.11
825.86	17512.18
826.04	17663.73
826.21	17407.73
826.39	17694.45
826.57	17338.10
826.75	17411.83
826.93	17221.37
827.10	17100.54
827.28	17346.30
827.46	17143.55
827.64	17258.23
827.81	17286.90
827.99	17198.84
828.17	17200.89
828.35	17059.58
828.53	17139.45
828.70	17215.23
828.88	17008.38
829.06	17088.25
829.24	17217.27
829.41	16955.13
829.59	17307.38
829.77	16905.98
829.95	17184.51
830.12	16848.64
830.30	16727.81
830.48	16836.35
830.66	16918.27
830.84	16781.06
831.01	16664.32
831.19	16805.63
831.37	16598.79
831.55	16568.07
831.72	16533.25
831.90	16690.95
832.08	16631.55
832.25	16375.56
832.43	16635.65
832.61	16559.88
832.79	16570.12
832.96	16486.15
833.14	16467.72
833.32	16355.08
833.50	16604.93
833.67	16492.29
833.85	16545.54
834.03	16166.67
834.20	16375.56
834.38	16301.83
834.56	16473.86
834.74	16293.64
834.91	16455.43
835.09	16344.84
835.27	15947.53
835.44	16060.17
835.62	15918.86
835.80	16021.26
835.98	15949.58
836.15	15968.01
836.33	15992.59
836.51	16117.51
836.68	15906.57
836.86	15838.99
837.04	15851.28
837.21	15826.70
837.39	15959.82
837.57	15771.41
837.75	15853.33
837.92	15640.34
838.10	15779.60
838.28	15523.60
838.45	15640.34
838.63	15585.04
838.81	15626.00
838.98	15714.06
839.16	15740.69
839.34	15589.14
839.51	15501.08
839.69	15327.00
839.87	15415.06
840.04	15167.26
840.22	15525.65
840.40	15310.61
840.57	15220.50
840.75	15392.53
840.93	15173.40
841.10	15339.29
841.28	15331.09
841.46	15062.81
841.63	15208.22
841.81	15363.86
841.98	15300.37
842.16	15091.48
842.34	14960.41
842.51	15238.94
842.69	15363.86
842.87	14860.06
843.04	15005.47
843.22	15097.63
843.40	14757.66
843.57	15042.33
843.75	15109.91
843.92	15320.85
844.10	15058.71
844.28	14946.08
844.45	15050.52
844.63	14794.53
844.81	14745.38
844.98	14737.18
845.16	14788.38
845.33	14720.80
845.51	14839.58
845.69	14751.52
845.86	14481.19
846.04	14589.73
846.21	14520.10
846.39	14659.36
846.57	14591.78
846.74	14571.30
846.92	14563.11
847.09	14651.17
847.27	14571.30
847.45	14657.31
847.62	14700.32
847.80	14438.18
847.97	14591.78
848.15	14552.87
848.32	14362.40
848.50	14585.63
848.68	14214.95
848.85	14393.12
849.03	14204.71
849.20	14417.70
849.38	14219.05
849.56	14176.04
849.73	14251.81
849.91	14212.90
850.08	14341.93
850.26	14206.76
850.43	14180.14
850.61	14290.73
850.78	14118.70
850.96	13911.85
851.14	14012.20
851.31	14008.11
851.49	14012.20
851.66	14165.80
851.84	14151.46
852.01	14098.22
852.19	14186.28
852.36	13893.42
852.54	14020.39
852.71	14053.16
852.89	13889.32
853.07	13748.01
853.24	14059.31
853.42	13844.27
853.59	13715.25
853.77	13788.97
853.94	13860.65
854.12	13702.96
854.29	13563.70
854.47	13825.84
854.64	13743.92
854.82	13829.93
854.99	13829.93
855.17	13508.40
855.34	13698.86
855.52	13643.57
855.69	13713.20
855.87	13631.28
856.04	13492.02
856.22	13588.27
856.39	13676.34
856.57	13520.69
856.74	13573.94
856.92	13784.88
857.09	13477.68
857.27	13174.58
857.44	13547.31
857.62	13471.54
857.79	13539.12
857.97	13467.44
858.14	13344.56
858.32	13190.97
858.49	13344.56
858.67	13238.07
858.84	13311.80
859.02	13201.21
859.19	13209.40
859.37	13037.37
859.54	13256.50
859.72	13281.08
859.89	13092.66
860.06	13119.29
860.24	13033.27
860.41	13066.04
860.59	12889.92
860.76	12842.81
860.94	12885.82
861.11	13133.62
861.29	12885.82
861.46	12932.92
861.64	12949.31
861.81	12889.92
861.98	13051.70
862.16	12908.35
862.33	12871.48
862.51	12773.18
862.68	12566.34
862.86	12580.67
863.03	12664.64
863.21	12676.93
863.38	12771.13
863.55	12611.39
863.73	12779.32
863.90	12517.18
864.08	12601.15
864.25	12574.53
864.43	12670.78
864.60	12437.31
864.77	12425.03
864.95	12318.53
865.12	12345.16
865.30	12166.98
865.47	12525.38
865.64	12371.78
865.82	12351.30
865.99	12656.45
866.17	12201.80
866.34	12339.01
866.51	12345.16
866.69	12320.58
866.86	12375.88
867.04	12379.97
867.21	12259.14
867.38	12257.09
867.56	12392.26
867.73	12205.89
867.91	11997.00
868.08	12306.24
868.25	12130.12
868.43	11949.90
868.60	12005.19
868.78	12009.29
868.95	12109.64
869.12	11968.33
869.30	12017.48
869.47	12023.62
869.64	11788.11
869.82	11818.83
869.99	11908.94
870.16	11841.36
870.34	11974.47
870.51	11855.69
870.69	11880.27
870.86	11566.93
871.03	11685.71
871.21	11630.41
871.38	11812.68
871.55	11636.56
871.73	11589.46
871.90	11550.54
872.07	11444.05
872.25	11345.75
872.42	11548.50
872.59	11370.32
872.77	11347.79
872.94	11411.28
873.11	11351.89
873.29	11132.76
873.46	11335.51
873.63	11456.34
873.81	11437.91
873.98	11171.67
874.15	11265.88
874.33	11200.34
874.50	11077.46
874.67	11290.45
874.85	11159.38
875.02	11118.42
875.19	11155.29
875.37	11161.43
875.54	11056.98
875.71	10981.21
875.88	10829.66
876.06	10878.81
876.23	11108.18
876.40	10772.32
876.58	10874.71
876.75	10760.03
876.92	10936.15
877.10	10880.86
877.27	10760.03
877.44	10887.00
877.61	10659.68
877.79	10614.62
877.96	10661.73
878.13	10833.75
878.31	10547.04
878.48	10557.28
878.65	10592.09
878.82	10696.54
879.00	10692.44
879.17	10571.61
879.34	10522.46
879.51	10518.37
879.69	10452.83
879.86	10534.75
880.03	10485.60
880.21	10303.33
880.38	10532.70
880.55	10530.66
880.72	10241.89
880.90	10563.42
881.07	10381.15
881.24	10270.56
881.41	10413.92
881.59	10211.17
881.76	10297.19
881.93	10059.62
882.10	10043.24
882.28	10190.69
882.45	10174.31
882.62	10237.80
882.79	10276.71
882.96	10049.38
883.14	10303.33
883.31	10180.45
883.48	9940.84
883.65	9998.18
883.83	9963.37
884.00	10061.67
884.17	10086.25
884.34	10262.37
884.51	9885.55
884.69	10123.11
884.86	10155.88
885.03	10030.95
885.20	9820.01
885.38	10252.13
885.55	9932.65
885.72	9891.69
885.89	9992.04
886.06	9901.93
886.24	9938.79
886.41	9940.84
886.58	10016.62
886.75	9957.22
886.92	9893.74
887.10	9955.18
887.27	9889.64
887.44	9750.38
887.61	9820.01
887.78	9707.37
887.95	9754.48
888.13	9852.78
888.30	9680.75
888.47	9787.24
888.64	9598.83
888.81	9713.52
888.99	9764.72
889.16	9783.15
889.33	9514.86
889.50	9523.05
889.67	9664.36
889.84	9475.95
890.01	9705.32
890.19	9535.34
890.36	9418.61
890.53	9494.38
890.70	9551.73
890.87	9580.40
891.04	9301.87
891.22	9291.63
891.39	9478.00
891.56	9348.98
891.73	9480.05
891.90	9371.50
892.07	9187.19
892.24	9332.59
892.42	9316.21
892.59	9240.44
892.76	9283.44
892.93	9234.29
893.10	9373.55
893.27	9254.77
893.44	9156.47
893.61	9252.72
893.79	9324.40
893.96	9201.52
894.13	9187.19
894.30	9037.69
894.47	9000.82
894.64	9193.33
894.81	9166.71
894.98	9195.38
895.15	9267.06
895.33	9015.16
895.50	9062.26
895.67	9154.42
895.84	9215.86
896.01	9033.59
896.18	9049.97
896.35	9119.60
896.52	9166.71
896.69	9172.85
896.86	9086.84
897.04	9213.81
897.21	9039.73
897.38	9023.35
897.55	8951.67
897.72	9019.25
897.89	9148.28
898.06	9256.82
898.23	9023.35
898.40	9099.13
898.57	8910.71
898.74	9080.69
898.91	8968.06
899.08	9054.07
899.26	8945.53
899.43	9074.55
899.60	8916.86
899.77	9086.84
899.94	8966.01
900.11	8994.68
900.28	9011.06
900.45	8904.57
900.62	8900.47
900.79	8761.21
900.96	8839.03
901.13	8900.47
901.30	8855.42
901.47	8646.52
901.64	8875.90
901.81	8800.12
901.98	8677.24
902.15	9043.83
902.32	8613.76
902.49	8918.90
902.66	8679.29
902.83	8783.74
903.01	8894.33
903.18	8847.22
903.35	9029.49
903.52	8759.16
903.69	8697.72
903.86	8882.04
904.03	8703.87
904.20	9029.49
904.37	8886.14
904.54	8859.51
904.71	8724.35
904.88	8685.44
905.05	8763.26
905.22	8734.59
905.39	8787.83
905.56	8736.63
905.73	8763.26
905.90	8816.51
906.07	8875.90
906.24	8636.28
906.41	8716.16
906.58	8736.63
906.75	8587.13
906.92	8578.94
907.09	8771.45
907.26	8746.87
907.43	8685.44
907.60	8796.03
907.77	8820.60
907.93	8609.66
908.10	8886.14
908.27	8654.72
908.44	8521.60
908.61	8578.94
908.78	8593.28
908.95	8617.85
909.12	8667.00
909.29	8644.48
909.46	8613.76
909.63	8640.38
909.80	8640.38
909.97	8576.89
910.14	8480.64
910.31	8394.62
910.48	8513.41
910.65	8607.61
910.82	8501.12
910.99	8462.21
911.16	8437.63
911.33	8566.65
911.50	8275.84
911.66	8529.79
911.83	8548.22
912.00	8241.03
912.17	8353.66
912.34	8474.49
912.51	8431.49
912.68	8300.42
912.85	8425.34
913.02	8349.57
913.19	8187.78
913.36	8335.23
913.53	8357.76
913.70	8261.51
913.86	8353.66
914.03	8392.58
914.20	8191.88
914.37	8241.03
914.54	8218.50
914.71	8228.74
914.88	8312.71
915.05	8167.30
915.22	8322.94
915.39	8181.64
915.55	8058.76
915.72	8155.01
915.89	7985.03
916.06	8028.04
916.23	7896.97
916.40	8079.24
916.57	8056.71
916.74	7950.21
916.91	7911.30
917.07	7956.36
917.24	7858.06
917.41	7757.71
917.58	7997.32
917.75	7884.68
917.92	7675.79
918.09	7782.28
918.26	7866.25
918.42	7587.72
918.59	7755.66
918.76	7561.10
918.93	7659.40
919.10	7708.55
919.27	7739.27
919.44	7659.40
919.60	7581.58
919.77	7468.94
919.94	7518.09
920.11	7419.79
920.28	7493.52
920.45	7407.50
920.61	7464.85
920.78	7352.21
920.95	7487.37
921.12	7407.50
921.29	7477.13
921.46	7145.36
921.62	7301.01
921.79	7241.62
921.96	7262.10
922.13	7157.65
922.30	7327.63
922.47	7169.94
922.63	7073.68
922.80	7190.42
922.97	7049.11
923.14	7018.39
923.31	7122.84
923.47	7055.25
923.64	7206.80
923.81	7014.29
923.98	6952.85
924.15	6791.06
924.32	6967.19
924.48	6868.89
924.65	6950.81
924.82	6870.94
924.99	6780.82
925.15	6686.62
925.32	6834.07
925.49	6518.68
925.66	6717.34
925.83	6655.90
925.99	6662.04
926.16	6602.65
926.33	6653.85
926.50	6512.54
926.67	6520.73
926.83	6428.57
927.00	6487.96
927.17	6504.35
927.34	6404.00
927.50	6467.49
927.67	6549.40
927.84	6408.09
928.01	6342.56
928.17	6492.06
928.34	6242.21
928.51	6391.71
928.68	6317.98
928.84	6139.81
929.01	6342.56
929.18	6070.18
929.35	6061.99
929.51	5982.12
929.68	6023.08
929.85	6113.19
930.02	5971.88
930.18	5963.68
930.35	5846.95
930.52	5971.88
930.69	5992.36
930.85	5965.73
931.02	5793.70
931.19	5816.23
931.36	5842.85
931.52	5828.52
931.69	5879.72
931.86	5851.05
932.02	5746.60
932.19	5693.35
932.36	5658.54
932.53	5781.42
932.69	5724.07
932.86	5541.80
933.03	5670.83
933.19	5527.47
933.36	5472.17
933.53	5562.28
933.70	5334.96
933.86	5547.95
934.03	5605.29
934.20	5400.49
934.36	5431.21
934.53	5330.86
934.70	5248.94
934.86	5228.46
935.03	5232.56
935.20	5236.66
935.36	5275.57
935.53	5248.94
935.70	4972.47
935.86	4986.80
936.03	4929.46
936.20	4943.80
936.36	5021.62
936.53	4997.04
936.70	4876.21
936.86	4865.97
937.03	4843.45
937.20	4763.58
937.36	4728.76
937.53	4655.03
937.70	4704.18
937.86	4540.35
938.03	4630.46
938.20	4630.46
938.36	4411.32
938.53	4521.92
938.70	4448.19
938.86	4325.31
939.03	4349.89
939.20	4255.68
939.36	4235.20
939.53	4130.75
939.70	4288.45
939.86	4118.47
940.03	4143.04
940.19	4061.12
940.36	4067.27
940.53	4016.07
940.69	3790.79
940.86	3878.85
941.03	3860.42
941.19	3852.23
941.36	3739.59
941.52	3852.23
941.69	3684.30
941.86	3704.78
942.02	3731.40
942.19	3637.19
942.35	3684.30
942.52	3682.25
942.69	3495.88
942.85	3489.74
943.02	3538.89
943.18	3538.89
943.35	3461.07
943.52	3588.04
943.68	3413.96
943.85	3385.29
944.01	3360.72
944.18	3295.18
944.35	3375.05
944.51	3370.96
944.68	3315.66
944.84	3364.81
945.01	3362.76
945.17	3237.84
945.34	3209.17
945.51	3336.14
945.67	3235.79
945.84	3264.46
946.00	3157.97
946.17	3254.22
946.33	3237.84
946.50	3264.46
946.67	3221.45
946.83	3237.84
947.00	3258.32
947.16	3166.16
947.33	3069.91
947.49	3162.06
947.66	3203.02
947.82	3084.24
947.99	3139.54
948.16	3141.58
948.32	3045.33
948.49	3123.15
948.65	3237.84
948.82	3131.34
948.98	3074.00
949.15	3092.43
949.31	3061.71
949.48	3092.43
949.64	3096.53
949.81	3137.49
949.97	3205.07
950.14	3200.98
950.30	3174.35
950.47	3186.64
950.63	3180.50
950.80	3110.86
950.96	3114.96
951.13	3065.81
951.30	3104.72
951.46	3049.43
951.63	3045.33
951.79	3012.56
951.96	3125.20
952.12	3074.00
952.29	3043.28
952.45	3102.67
952.62	3024.85
952.78	3090.38
952.94	2998.23
953.11	3071.95
953.27	3033.04
953.44	3088.34
953.60	3006.42
953.77	3114.96
953.93	3069.91
954.10	3076.05
954.26	3069.91
954.43	3026.90
954.59	3114.96
954.76	3030.99
954.92	3020.75
955.09	3053.52
955.25	2957.27
955.42	3078.10
955.58	3090.38
955.75	3059.67
955.91	2996.18
956.07	2973.65
956.24	3020.75
956.40	3041.23
956.57	3037.14
956.73	2983.89
956.90	2963.41
957.06	2932.69
957.23	2873.30
957.39	3067.86
957.56	2934.74
957.72	2926.55
957.88	2992.08
958.05	2990.03
958.21	3045.33
958.38	2981.84
958.54	2889.68
958.71	3039.19
958.87	2961.36
959.03	2959.31
959.20	2981.84
959.36	2904.02
959.53	2932.69
959.69	2922.45
959.85	3022.80
960.02	2807.77
960.18	2987.99
960.35	2922.45
960.51	2924.50
960.68	2830.29
960.84	2990.03
961.00	2889.68
961.17	2891.73
961.33	2961.36
961.50	2930.64
961.66	2971.60
961.82	2858.96
961.99	2961.36
962.15	2879.44
962.31	2832.34
962.48	2852.82
962.64	2942.93
962.81	2856.92
962.97	2998.23
963.13	2895.83
963.30	2830.29
963.46	2824.15
963.62	2891.73
963.79	2930.64
963.95	2871.25
964.12	2875.35
964.28	2840.53
964.44	2820.05
964.61	2912.21
964.77	2838.48
964.93	2910.16
965.10	2809.81
965.26	2826.20
965.42	2863.06
965.59	2807.77
965.75	2865.11
965.92	2926.55
966.08	2793.43
966.24	2901.97
966.41	2715.61
966.57	2805.72
966.73	2883.54
966.90	2899.92
967.06	2820.05
967.22	2772.95
967.39	2723.80
967.55	2807.77
967.71	2768.85
967.88	2803.67
968.04	2713.56
968.20	2738.13
968.37	2668.50
968.53	2754.52
968.69	2738.13
968.85	2748.37
969.02	2754.52
969.18	2895.83
969.34	2682.84
969.51	2756.57
969.67	2783.19
969.83	2717.65
970.00	2822.10
970.16	2693.08
970.32	2746.33
970.48	2779.09
970.65	2803.67
970.81	2648.02
970.97	2772.95
971.14	2602.97
971.30	2865.11
971.46	2758.61
971.63	2815.96
971.79	2764.76
971.95	2725.85
972.11	2697.17
972.28	2623.45
972.44	2787.29
972.60	2662.36
972.76	2746.33
972.93	2686.94
973.09	2686.94
973.25	2758.61
973.42	2576.34
973.58	2727.89
973.74	2629.59
973.90	2715.61
974.07	2648.02
974.23	2684.89
974.39	2629.59
974.55	2627.54
974.72	2652.12
974.88	2547.67
975.04	2631.64
975.20	2613.21
975.37	2562.01
975.53	2658.26
975.69	2539.48
975.85	2584.54
976.01	2703.32
976.18	2623.45
976.34	2678.74
976.50	2602.97
976.66	2674.65
976.83	2586.58
976.99	2596.82
977.15	2607.06
977.31	2551.77
977.47	2645.98
977.64	2525.15
977.80	2480.09
977.96	2562.01
978.12	2631.64
978.29	2531.29
978.45	2551.77
978.61	2527.19
978.77	2516.95
978.93	2488.28
979.10	2519.00
979.26	2574.30
979.42	2500.57
979.58	2488.28
979.74	2600.92
979.91	2519.00
980.07	2500.57
980.23	2553.82
980.39	2441.18
980.55	2576.34
980.71	2449.37
980.88	2418.65
981.04	2494.43
981.20	2453.47
981.36	2451.42
981.52	2486.23
981.68	2392.03
981.85	2459.61
982.01	2430.94
982.17	2529.24
982.33	2451.42
982.49	2480.09
982.65	2480.09
982.82	2502.62
982.98	2490.33
983.14	2455.51
983.30	2437.08
983.46	2459.61
983.62	2402.27
983.79	2469.85
983.95	2435.03
984.11	2369.50
984.27	2416.60
984.43	2342.88
984.59	2344.92
984.75	2443.23
984.91	2435.03
985.08	2389.98
985.24	2447.32
985.40	2373.60
985.56	2426.84
985.72	2408.41
985.88	2445.27
986.04	2396.12
986.20	2295.77
986.37	2363.36
986.53	2224.09
986.69	2467.80
986.85	2338.78
987.01	2346.97
987.17	2308.06
987.33	2428.89
987.49	2301.92
987.65	2316.25
987.82	2351.07
987.98	2351.07
988.14	2334.68
988.30	2396.12
988.46	2240.48
988.62	2299.87
988.78	2248.67
988.94	2371.55
989.10	2400.22
989.26	2242.53
989.42	2332.64
989.59	2136.03
989.75	2279.39
989.91	2293.72
990.07	2176.99
990.23	2248.67
990.39	2246.62
990.55	2242.53
990.71	2256.86
990.87	2334.68
991.03	2326.49
991.19	2275.29
991.35	2228.19
991.51	2306.01
991.67	2318.30
991.83	2258.91
992.00	2324.44
992.16	2240.48
992.32	2187.23
992.48	2228.19
992.64	2277.34
992.80	2213.85
992.96	2273.25
993.12	2254.81
993.28	2172.89
993.44	2164.70
993.60	2230.24
993.76	2242.53
993.92	2293.72
994.08	2338.78
994.24	2234.33
994.40	2226.14
994.56	2230.24
994.72	2226.14
994.88	2170.85
995.04	2205.66
995.20	2195.42
995.36	2254.81
995.52	2273.25
995.68	2176.99
995.84	2234.33
996.00	2273.25
996.16	2201.57
996.32	2230.24
996.48	2119.65
996.64	2207.71
996.80	2158.56
996.96	2127.84
997.12	2144.22
997.28	2093.02
997.44	2121.70
997.60	2142.18
997.76	2195.42
997.92	2242.53
998.08	2193.37
998.24	2172.89
998.40	2148.32
998.56	2197.47
998.72	2025.44
998.88	2090.98
999.04	2142.18
999.20	2207.71
999.36	2133.98
999.52	2162.66
999.68	2140.13
999.84	2119.65
1000.00	2066.40
1000.16	2086.88
1000.32	2097.12
1000.48	2205.66
1000.64	2084.83
1000.80	2121.70
1000.95	2031.58
1001.11	2211.81
1001.27	2025.44
1001.43	2119.65
1001.59	1996.77
1001.75	2099.17
1001.91	2064.35
1002.07	2158.56
1002.23	2131.94
1002.39	2093.02
1002.55	2078.69
1002.71	2078.69
1002.87	2115.55
1003.03	2043.87
1003.19	2035.68
1003.34	2041.82
1003.50	2031.58
1003.66	2078.69
1003.82	2074.59
1003.98	2041.82
1004.14	2037.73
1004.30	2095.07
1004.46	1986.53
1004.62	2009.06
1004.78	2029.54
1004.94	1947.62
1005.09	2068.45
1005.25	2025.44
1005.41	2041.82
1005.57	2039.78
1005.73	2099.17
1005.89	1957.86
1006.05	2037.73
1006.21	2017.25
1006.37	2023.39
1006.52	2013.15
1006.68	1968.10
1006.84	2050.02
1007.00	1998.82
1007.16	2019.30
1007.32	1990.63
1007.48	2007.01
1007.64	2043.87
1007.79	2004.96
1007.95	1939.43
1008.11	1970.15
1008.27	1978.34
1008.43	1964.00
1008.59	1992.67
1008.75	1994.72
1008.91	1984.48
1009.06	2009.06
1009.22	1957.86
1009.38	1923.04
1009.54	1931.23
1009.70	2031.58
1009.86	1941.47
1010.01	1990.63
1010.17	1882.08
1010.33	1978.34
1010.49	1982.43
1010.65	2017.25
1010.81	1943.52
1010.96	1900.52
1011.12	1957.86
1011.28	1941.47
1011.44	1933.28
1011.60	1873.89
1011.76	1902.56
1011.91	1957.86
1012.07	1966.05
1012.23	1898.47
1012.39	1898.47
1012.55	1968.10
1012.71	1923.04
1012.86	1941.47
1013.02	1914.85
1013.18	1988.58
1013.34	1941.47
1013.50	1906.66
1013.65	1972.19
1013.81	1869.80
1013.97	1896.42
1014.13	1933.28
1014.29	1929.19
1014.44	1931.23
1014.60	1912.80
1014.76	1908.71
1014.92	1888.23
1015.07	1923.04
1015.23	1859.56
1015.39	1748.97
1015.55	1896.42
1015.71	1847.27
1015.86	1898.47
1016.02	1886.18
1016.18	1839.08
1016.34	1941.47
1016.49	1929.19
1016.65	1941.47
1016.81	1832.93
1016.97	1855.46
1017.12	1896.42
1017.28	1787.88
1017.44	1849.32
1017.60	1861.60
1017.75	1906.66
1017.91	1847.27
1018.07	1841.12
1018.23	1875.94
1018.38	1814.50
1018.54	1828.84
1018.70	1837.03
1018.86	1806.31
1019.01	1822.69
1019.17	1824.74
1019.33	1882.08
1019.49	1839.08
1019.64	1804.26
1019.80	1839.08
1019.96	1886.18
1020.12	1880.04
1020.27	1804.26
1020.43	1955.81
1020.59	1759.21
1020.74	1857.51
1020.90	1837.03
1021.06	1806.31
1021.22	1824.74
1021.37	1798.12
1021.53	1796.07
1021.69	1853.41
1021.84	1808.36
1022.00	1794.02
1022.16	1791.97
1022.31	1787.88
1022.47	1773.54
1022.63	1753.06
1022.79	1761.25
1022.94	1808.36
1023.10	1814.50
1023.26	1783.78
1023.41	1785.83
1023.57	1716.20
1023.73	1841.12
1023.88	1802.21
1024.04	1748.97
1024.20	1787.88
1024.35	1834.98
1024.51	1808.36
1024.67	1800.16
1024.82	1824.74
1024.98	1726.44
1025.14	1806.31
1025.29	1794.02
1025.45	1798.12
1025.61	1722.34
1025.76	1802.21
1025.92	1785.83
1026.08	1814.50
1026.23	1791.97
1026.39	1863.65
1026.55	1746.92
1026.70	1759.21
1026.86	1753.06
1027.02	1812.45
1027.17	1738.73
1027.33	1710.05
1027.48	1771.49
1027.64	1763.30
1027.80	1724.39
1027.95	1775.59
1028.11	1812.45
1028.27	1712.10
1028.42	1710.05
1028.58	1810.40
1028.73	1755.11
1028.89	1765.35
1029.05	1757.16
1029.20	1734.63
>>>>>End Processed Spectral Data<<<<<
