SpectraSuite Data File
++++++++++++++++++++++++++++++++++++
Date: Tue Jun 13 11:58:31 CEST 2017
User: INFO_000
Dark Spectrum Present: No
Reference Spectrum Present: No
Number of Sampled Component Spectra: 1
Spectrometers: USB4H00879
Integration Time (usec): 30000 (USB4H00879)
Spectra Averaged: 1 (USB4H00879)
Boxcar Smoothing: 0 (USB4H00879)
Correct for Electrical Dark: No (USB4H00879)
Strobe/Lamp Enabled: No (USB4H00879)
Correct for Detector Non-linearity: No (USB4H00879)
Correct for Stray Light: No (USB4H00879)
Number of Pixels in Processed Spectrum: 3648
>>>>>Begin Processed Spectral Data<<<<<
345.13	1355.76
345.34	1355.76
345.56	1355.76
345.78	1347.56
345.99	1327.08
346.21	1501.16
346.42	1538.02
346.64	1533.93
346.86	1587.18
347.07	1452.01
347.29	1513.45
347.50	1495.02
347.72	1525.74
347.94	1542.12
348.15	1449.96
348.37	1429.48
348.59	1511.40
348.80	1484.78
349.02	1591.27
349.23	1568.74
349.45	1591.27
349.67	1658.85
349.88	1564.65
350.10	1738.73
350.31	1581.03
350.53	1599.46
350.75	1693.67
350.96	1560.55
351.18	1652.71
351.39	1576.94
351.61	1560.55
351.82	1548.26
352.04	1640.42
352.26	1564.65
352.47	1714.15
352.69	1605.61
352.90	1597.42
353.12	1624.04
353.34	1605.61
353.55	1701.86
353.77	1632.23
353.98	1593.32
354.20	1587.18
354.41	1640.42
354.63	1687.53
354.85	1679.33
355.06	1669.09
355.28	1548.26
355.49	1599.46
355.71	1648.61
355.92	1687.53
356.14	1646.57
356.35	1681.38
356.57	1626.09
356.79	1611.75
357.00	1583.08
357.22	1734.63
357.43	1634.28
357.65	1675.24
357.86	1566.70
358.08	1597.42
358.29	1609.70
358.51	1693.67
358.72	1697.77
358.94	1671.14
359.16	1701.86
359.37	1628.14
359.59	1658.85
359.80	1671.14
360.02	1677.29
360.23	1728.49
360.45	1734.63
360.66	1646.57
360.88	1583.08
361.09	1687.53
361.31	1691.62
361.52	1662.95
361.74	1705.96
361.95	1699.81
362.17	1685.48
362.38	1800.16
362.60	1775.59
362.81	1728.49
363.03	1644.52
363.24	1720.29
363.46	1718.25
363.67	1748.97
363.89	1755.11
364.10	1714.15
364.32	1705.96
364.53	1712.10
364.75	1789.92
364.96	1777.64
365.18	1673.19
365.39	1712.10
365.61	1746.92
365.82	1746.92
366.04	1757.16
366.25	1781.73
366.47	1777.64
366.68	1734.63
366.90	1746.92
367.11	1718.25
367.33	1761.25
367.54	1708.01
367.76	1748.97
367.97	1804.26
368.19	1697.77
368.40	1789.92
368.62	1830.88
368.83	1718.25
369.05	1763.30
369.26	1746.92
369.48	1699.81
369.69	1716.20
369.91	1769.44
370.12	1705.96
370.33	1843.17
370.55	1806.31
370.76	1757.16
370.98	1718.25
371.19	1808.36
371.41	1794.02
371.62	1761.25
371.84	1751.01
372.05	1832.93
372.27	1832.93
372.48	1882.08
372.69	1886.18
372.91	1804.26
373.12	1789.92
373.34	1781.73
373.55	1849.32
373.77	1896.42
373.98	1822.69
374.20	1787.88
374.41	1839.08
374.62	1816.55
374.84	1841.12
375.05	1953.76
375.27	1812.45
375.48	1828.84
375.70	1859.56
375.91	1900.52
376.12	1923.04
376.34	1902.56
376.55	1839.08
376.77	1886.18
376.98	1861.60
377.19	1941.47
377.41	1900.52
377.62	1853.41
377.84	1898.47
378.05	1929.19
378.27	1888.23
378.48	1869.80
378.69	1964.00
378.91	1945.57
379.12	1902.56
379.34	1904.61
379.55	1877.99
379.76	1937.38
379.98	1787.88
380.19	1908.71
380.41	1916.90
380.62	2004.96
380.83	1980.39
381.05	1923.04
381.26	2045.92
381.47	1984.48
381.69	1955.81
381.90	1966.05
382.12	2009.06
382.33	1935.33
382.54	1986.53
382.76	2009.06
382.97	1992.67
383.19	1945.57
383.40	2109.41
383.61	2045.92
383.83	1964.00
384.04	2070.50
384.25	2047.97
384.47	2037.73
384.68	2043.87
384.89	2037.73
385.11	2076.64
385.32	2060.26
385.54	2080.74
385.75	2121.70
385.96	2150.37
386.18	2062.30
386.39	2035.68
386.60	2084.83
386.82	2084.83
387.03	2080.74
387.24	2174.94
387.46	2041.82
387.67	2074.59
387.88	2111.46
388.10	2152.42
388.31	2162.66
388.52	2203.61
388.74	2240.48
388.95	2086.88
389.16	2158.56
389.38	2097.12
389.59	2115.55
389.80	2236.38
390.02	2265.05
390.23	2099.17
390.44	2269.15
390.66	2209.76
390.87	2199.52
391.08	2252.77
391.30	2342.88
391.51	2211.81
391.72	2330.59
391.94	2220.00
392.15	2211.81
392.36	2291.68
392.58	2256.86
392.79	2250.72
393.00	2279.39
393.22	2301.92
393.43	2310.11
393.64	2349.02
393.85	2410.46
394.07	2379.74
394.28	2342.88
394.49	2453.47
394.71	2349.02
394.92	2408.41
395.13	2314.20
395.35	2430.94
395.56	2332.64
395.77	2400.22
395.98	2363.36
396.20	2381.79
396.41	2398.17
396.62	2432.99
396.84	2441.18
397.05	2494.43
397.26	2572.25
397.47	2551.77
397.69	2414.56
397.90	2459.61
398.11	2529.24
398.32	2537.43
398.54	2525.15
398.75	2564.06
398.96	2570.20
399.18	2580.44
399.39	2537.43
399.60	2662.36
399.81	2475.99
400.03	2553.82
400.24	2609.11
400.45	2500.57
400.66	2613.21
400.88	2582.49
401.09	2770.90
401.30	2723.80
401.51	2629.59
401.73	2674.65
401.94	2662.36
402.15	2688.98
402.36	2648.02
402.58	2668.50
402.79	2699.22
403.00	2664.41
403.21	2768.85
403.43	2717.65
403.64	2676.70
403.85	2660.31
404.06	2772.95
404.27	2770.90
404.49	2797.53
404.70	2822.10
404.91	2850.77
405.12	2836.44
405.34	2764.76
405.55	2924.50
405.76	2729.94
405.97	2762.71
406.19	2869.20
406.40	2811.86
406.61	2889.68
406.82	2820.05
407.03	2815.96
407.25	2869.20
407.46	2828.24
407.67	2889.68
407.88	2873.30
408.09	2897.88
408.31	2883.54
408.52	2977.75
408.73	2783.19
408.94	2893.78
409.15	2971.60
409.37	3000.27
409.58	3102.67
409.79	2951.12
410.00	2934.74
410.21	2992.08
410.43	3039.19
410.64	3026.90
410.85	2981.84
411.06	3121.10
411.27	3016.66
411.48	3080.14
411.70	3088.34
411.91	3022.80
412.12	3221.45
412.33	3098.58
412.54	3174.35
412.76	3096.53
412.97	3123.15
413.18	3141.58
413.39	3157.97
413.60	3241.93
413.81	3137.49
414.03	3106.77
414.24	3125.20
414.45	3364.81
414.66	3262.41
414.87	3207.12
415.08	3155.92
415.30	3213.26
415.51	3235.79
415.72	3325.90
415.93	3377.10
416.14	3368.91
416.35	3264.46
416.56	3344.33
416.78	3225.55
416.99	3401.68
417.20	3192.78
417.41	3184.59
417.62	3403.72
417.83	3450.83
418.04	3442.64
418.26	3375.05
418.47	3409.87
418.68	3430.35
418.89	3469.26
419.10	3461.07
419.31	3555.27
419.52	3491.79
419.73	3551.18
419.95	3596.23
420.16	3477.45
420.37	3491.79
420.58	3567.56
420.79	3465.16
421.00	3575.75
421.21	3649.48
421.42	3454.92
421.63	3575.75
421.85	3557.32
422.06	3624.90
422.27	3588.04
422.48	3557.32
422.69	3721.16
422.90	3649.48
423.11	3739.59
423.32	3741.64
423.53	3866.56
423.75	3870.66
423.96	3841.99
424.17	3758.02
424.38	3878.85
424.59	3911.62
424.80	3971.01
425.01	3891.14
425.22	3950.53
425.43	3815.37
425.64	4128.70
425.85	4048.83
426.06	3971.01
426.28	4069.31
426.49	3973.06
426.70	4042.69
426.91	3903.43
427.12	3997.64
427.33	4059.07
427.54	4030.40
427.75	4120.51
427.96	4167.62
428.17	4149.18
428.38	4349.89
428.59	4222.91
428.80	4204.48
429.01	4249.54
429.23	4200.38
429.44	4403.13
429.65	4259.78
429.86	4366.27
430.07	4335.55
430.28	4227.01
430.49	4362.17
430.70	4300.73
430.91	4513.72
431.12	4523.96
431.33	4497.34
431.54	4509.63
431.75	4560.83
431.96	4499.39
432.17	4450.24
432.38	4470.72
432.59	4687.80
432.80	4739.00
433.01	4581.31
433.22	4749.24
433.43	4609.98
433.64	4741.05
433.85	4663.22
434.06	4657.08
434.27	4607.93
434.49	4804.53
434.70	4902.84
434.91	4753.34
435.12	4892.60
435.33	4790.20
435.54	4845.49
435.75	4650.94
435.96	4808.63
436.17	4814.77
436.38	4896.69
436.59	4900.79
436.80	4900.79
437.01	5038.00
437.22	5009.33
437.43	4878.26
437.64	4915.12
437.85	5021.62
438.06	5130.16
438.27	4954.04
438.48	5095.35
438.69	5038.00
438.90	5107.63
439.11	5066.67
439.32	5115.83
439.53	5083.06
439.74	5142.45
439.95	5273.52
440.16	5259.18
440.37	5177.26
440.57	5103.54
440.78	5224.37
440.99	5298.10
441.20	5205.94
441.41	5214.13
441.62	5337.01
441.83	5160.88
442.04	5355.44
442.25	5396.40
442.46	5468.08
442.67	5394.35
442.88	5756.84
443.09	5296.05
443.30	5455.79
443.51	5488.56
443.72	5728.17
443.93	5443.50
444.14	5801.90
444.35	5482.41
444.56	5703.59
444.77	5621.67
444.98	5642.15
445.19	5709.74
445.40	5664.68
445.61	5691.31
445.81	5773.22
446.02	5738.41
446.23	5699.50
446.44	5717.93
446.65	5762.98
446.86	5939.11
447.07	5894.05
447.28	5984.16
447.49	6035.36
447.70	5883.81
447.91	5988.26
448.12	5875.62
448.33	6135.71
448.54	5996.45
448.74	5982.12
448.95	6104.99
449.16	5916.58
449.37	6238.11
449.58	6121.38
449.79	6197.15
450.00	5957.54
450.21	6184.87
450.42	6358.94
450.63	6408.09
450.84	6197.15
451.05	6205.35
451.25	6223.78
451.46	6334.37
451.67	6360.99
451.88	6487.96
452.09	6479.77
452.30	6442.91
452.51	6492.06
452.72	6459.29
452.93	6703.00
453.13	6457.25
453.34	6401.95
453.55	6625.18
453.76	6496.16
453.97	6817.69
454.18	6684.57
454.39	6719.39
454.60	6721.43
454.81	6676.38
455.01	6928.28
455.22	6649.75
455.43	6823.83
455.64	7032.72
455.85	7071.64
456.06	7063.44
456.27	6875.03
456.48	7053.20
456.68	6952.85
456.89	6977.43
457.10	7153.55
457.31	7067.54
457.52	6981.53
457.73	7182.23
457.94	7339.92
458.14	7274.38
458.35	7587.72
458.56	7378.83
458.77	7319.44
458.98	7413.65
459.19	7260.05
459.39	7409.55
459.60	7659.40
459.81	7690.12
460.02	7651.21
460.23	7731.08
460.44	7813.00
460.65	7759.75
460.85	7653.26
461.06	7767.95
461.27	7655.31
461.48	7962.50
461.69	8114.05
461.89	7704.46
462.10	8019.85
462.31	7907.21
462.52	7868.30
462.73	8013.70
462.94	8216.45
463.14	8163.20
463.35	8013.70
463.56	8480.64
463.77	8374.14
463.98	8236.93
464.18	8343.42
464.39	8417.15
464.60	8595.32
464.81	8626.04
465.02	8535.93
465.23	8775.55
465.43	8595.32
465.64	8867.70
465.85	8804.22
466.06	8724.35
466.27	8902.52
466.47	9064.31
466.68	9043.83
466.89	9088.89
467.10	9135.99
467.30	8916.86
467.51	9183.09
467.72	9389.94
467.93	9119.60
468.14	9367.41
468.34	9365.36
468.55	9441.14
468.76	9467.76
468.97	9336.69
469.17	9508.72
469.38	9660.27
469.59	9774.95
469.80	9658.22
470.01	9969.51
470.21	9781.10
470.42	10028.90
470.63	9891.69
470.84	9865.07
471.04	10145.64
471.25	10170.21
471.46	10114.92
471.67	10200.93
471.87	10321.76
472.08	10215.27
472.29	10622.81
472.50	10149.73
472.70	10411.87
472.91	10514.27
473.12	10817.37
473.33	10813.28
473.53	11095.89
473.74	10782.56
473.95	10966.87
474.16	11188.05
474.36	11122.52
474.57	11398.99
474.78	11530.06
474.99	10997.59
475.19	11081.56
475.40	11634.51
475.61	11609.93
475.81	11773.77
476.02	11753.29
476.23	11616.08
476.44	11990.86
476.64	11874.12
476.85	12171.08
477.06	12111.69
477.27	12269.38
477.47	12162.89
477.68	12234.57
477.89	12457.79
478.09	12662.59
478.30	12570.43
478.51	12732.22
478.71	12760.89
478.92	12814.14
479.13	12908.35
479.34	13029.18
479.54	12906.30
479.75	13219.64
479.96	13166.39
480.16	13305.65
480.37	13199.16
480.58	13303.60
480.78	13512.50
480.99	13555.51
481.20	13711.15
481.41	13881.13
481.61	13948.72
481.82	13698.86
482.03	14098.22
482.23	14085.93
482.44	14255.91
482.65	14016.30
482.85	14380.84
483.06	14470.95
483.27	14409.51
483.47	14532.39
483.68	14579.49
483.89	14620.45
484.09	14663.46
484.30	14784.29
484.51	15003.42
484.71	15261.46
484.92	15191.83
485.13	15167.26
485.33	15240.98
485.54	15372.05
485.75	15617.81
485.95	15599.38
486.16	15437.59
486.37	15646.48
486.57	15718.16
486.78	15992.59
486.98	15632.15
487.19	15990.54
487.40	16047.88
487.60	15955.72
487.81	16289.54
488.02	16234.25
488.22	16363.27
488.43	16604.93
488.64	16617.22
488.84	16598.79
489.05	16533.25
489.25	16582.40
489.46	17045.24
489.67	16807.68
489.87	17008.38
490.08	17125.11
490.29	17268.47
490.49	17440.50
490.70	17516.28
490.90	17260.28
491.11	17430.26
491.32	17571.57
491.52	17469.17
491.73	17911.53
491.94	17762.03
492.14	17581.81
492.35	18024.17
492.55	18102.00
492.76	18058.99
492.97	18169.58
493.17	18089.71
493.38	18177.77
493.58	18501.35
493.79	18421.48
494.00	18534.12
494.20	18368.23
494.41	18616.04
494.61	18857.70
494.82	18734.82
495.02	18826.98
495.23	19003.10
495.44	18900.70
495.64	19046.11
495.85	19156.70
496.05	19175.13
496.26	19316.44
496.47	19255.00
496.67	19472.09
496.88	19574.49
497.08	19406.55
497.29	19672.79
497.49	19687.12
497.70	19990.22
497.91	19939.02
498.11	19764.95
498.32	19949.26
498.52	20041.42
498.73	20377.29
498.93	19992.27
499.14	19955.41
499.34	20412.10
499.55	20332.23
499.76	20215.50
499.96	20543.17
500.17	20688.58
500.37	20377.29
500.58	20555.46
500.78	20600.52
500.99	20700.87
501.19	21055.17
501.40	20666.05
501.60	20891.33
501.81	21061.31
502.02	20862.66
502.22	20782.79
502.43	21311.16
502.63	21229.24
502.84	21434.04
503.04	21219.00
503.25	21565.11
503.45	21382.84
503.66	21558.97
503.86	21778.10
504.07	21733.04
504.27	21532.34
504.48	21923.51
504.68	21718.71
504.89	21888.69
505.09	21917.36
505.30	21999.28
505.50	21941.94
505.71	21931.70
505.91	22199.98
506.12	22097.58
506.32	22263.47
506.53	22326.96
506.73	22120.11
506.94	22351.53
507.14	22589.10
507.35	22234.80
507.55	22644.39
507.76	22605.48
507.96	22486.70
508.17	22687.40
508.37	22705.83
508.58	22630.05
508.78	22615.72
508.99	22836.90
509.19	22765.22
509.40	23068.32
509.60	22939.30
509.81	23010.98
510.01	23049.89
510.22	22787.75
510.42	23336.60
510.63	22922.91
510.83	23371.42
511.04	22965.92
511.24	23342.75
511.44	23506.59
511.65	23387.80
511.85	23115.42
512.06	23547.54
512.26	23563.93
512.47	23627.42
512.67	23731.86
512.88	23525.02
513.08	23633.56
513.29	23838.36
513.49	23715.48
513.69	24200.85
513.90	23738.01
514.10	24030.87
514.31	23946.90
514.51	24110.74
514.72	23922.32
514.92	24293.01
515.13	24016.53
515.33	24102.54
515.53	24082.06
515.74	24032.91
515.94	24190.61
516.15	24317.58
516.35	24112.78
516.56	24381.07
516.76	24317.58
516.96	24561.29
517.17	24675.98
517.37	24696.46
517.58	24807.05
517.78	24692.36
517.99	24813.19
518.19	24739.46
518.39	25140.86
518.60	25097.86
518.80	24915.59
519.01	24952.45
519.21	24843.91
519.41	25308.80
519.62	24987.27
519.82	24780.42
520.03	25013.89
520.23	25454.20
520.43	25251.45
520.64	25613.95
520.84	25648.76
521.05	25570.94
521.25	25351.81
521.45	25740.92
521.66	25685.62
521.86	25708.15
522.07	25865.85
522.27	25669.24
522.47	25951.86
522.68	26144.37
522.88	26046.07
523.08	26113.65
523.29	26039.92
523.49	26191.47
523.70	26127.99
523.90	26281.58
524.10	26398.32
524.31	26373.74
524.51	26050.16
524.71	26988.13
524.92	26549.87
525.12	26752.62
525.33	26721.90
525.53	26887.78
525.73	27188.83
525.94	26900.07
526.14	26816.10
526.34	27397.73
526.55	27119.20
526.75	26928.74
526.95	27338.33
527.16	26967.65
527.36	27608.67
527.56	27696.73
527.77	27412.06
527.97	27459.16
528.17	27418.21
528.38	27790.94
528.58	27657.82
528.78	27938.39
528.99	28255.82
529.19	28036.69
529.39	27743.83
529.60	28075.60
529.80	28003.92
530.00	28366.42
530.21	28161.62
530.41	28552.78
530.61	28239.44
530.82	28491.34
531.02	28599.88
531.22	28483.15
531.43	28640.84
531.63	28728.91
531.83	28915.27
532.04	29064.77
532.24	29120.07
532.44	28747.34
532.64	29228.61
532.85	29417.02
533.05	29179.46
533.25	29146.69
533.46	29095.49
533.66	29718.07
533.86	29388.35
534.07	29525.57
534.27	29527.61
534.47	30119.48
534.67	29916.73
534.88	30017.08
535.08	30051.89
535.28	30031.41
535.49	30514.73
535.69	30211.64
535.89	30144.05
536.09	30283.31
536.30	30357.04
536.50	30631.47
536.70	30856.75
536.91	31049.25
537.11	30762.54
537.31	30778.92
537.51	30725.68
537.72	30920.23
537.92	31067.69
538.12	31094.31
538.32	31094.31
538.53	31077.93
538.73	30768.68
538.93	31217.19
539.13	31061.54
539.34	31477.28
539.54	31321.63
539.74	31614.49
539.94	31596.06
540.15	31100.45
540.35	31936.02
540.55	31643.17
540.75	31606.30
540.96	32112.15
541.16	32003.61
541.36	32001.56
541.56	32093.72
541.77	32290.32
541.97	32097.81
542.17	32161.30
542.37	32521.74
542.58	32108.05
542.78	32337.43
542.98	32249.36
543.18	32525.84
543.38	32601.61
543.59	32497.17
543.79	32558.61
543.99	32544.27
544.19	32718.35
544.40	32624.14
544.60	33201.67
544.80	32663.05
545.00	32656.91
545.20	32998.92
545.41	33179.14
545.61	33252.87
545.81	32773.64
546.01	33070.60
546.21	33068.55
546.42	32968.20
546.62	33093.13
546.82	33076.74
547.02	33447.43
547.22	33043.98
547.43	33578.50
547.63	33510.91
547.83	33338.88
548.03	33244.68
548.23	33945.08
548.44	33601.02
548.64	33410.56
548.84	33332.74
549.04	33582.59
549.24	33842.68
549.45	33912.31
549.65	33566.21
549.85	33625.60
550.05	34080.25
550.25	34057.72
550.45	34239.99
550.66	33701.37
550.86	34053.62
551.06	34164.21
551.26	34407.92
551.46	34049.53
551.66	34219.51
551.87	34260.47
552.07	34180.60
552.27	34336.24
552.47	34031.10
552.67	34514.42
552.87	34381.30
553.07	34317.81
553.28	34209.27
553.48	34221.56
553.68	34188.79
553.88	34803.18
554.08	34764.27
554.28	34383.35
554.48	34375.16
554.69	34336.24
554.89	34936.30
555.09	34807.28
555.29	34885.10
555.49	34694.64
555.69	35044.84
555.89	35034.60
556.10	34938.35
556.30	34711.02
556.50	34979.31
556.70	35182.06
556.90	35276.26
557.10	35024.36
557.30	34854.38
557.50	35286.50
557.70	35030.51
557.91	35491.30
558.11	35239.40
558.31	35184.10
558.51	35032.55
558.71	35554.79
558.91	35100.14
559.11	35393.00
559.31	35120.62
559.51	35071.46
559.72	35362.28
559.92	35382.76
560.12	35315.17
560.32	35710.43
560.52	34995.69
560.72	35491.30
560.92	35331.56
561.12	35317.22
561.32	35855.84
561.52	35433.96
561.72	35661.28
561.93	35702.24
562.13	35735.01
562.33	35407.33
562.53	36038.11
562.73	35042.79
562.93	35134.95
563.13	35534.31
563.33	35724.77
563.53	35839.45
563.73	35284.45
563.93	35407.33
564.13	35929.56
564.33	35876.32
564.53	35515.87
564.74	35917.28
564.94	35810.78
565.14	36023.77
565.34	35790.30
565.54	35927.52
565.74	35868.12
565.94	36361.69
566.14	36058.59
566.34	35802.59
566.54	36257.24
566.74	36013.53
566.94	36042.20
567.14	36152.79
567.34	35837.41
567.54	36455.89
567.74	36031.96
567.94	35839.45
568.14	36302.29
568.34	36699.60
568.54	36027.87
568.74	36468.18
568.94	36013.53
569.14	36320.73
569.34	36419.03
569.54	36445.65
569.75	36247.00
569.95	36036.06
570.15	36730.32
570.35	36539.86
570.55	35907.04
570.75	36519.38
570.95	36713.94
571.15	36296.15
571.35	36169.18
571.55	36050.39
571.75	36396.50
571.95	36845.01
572.15	36462.04
572.35	36959.69
572.55	36531.67
572.75	36554.19
572.95	36312.53
573.15	36425.17
573.35	36476.37
573.55	36130.26
573.75	36679.12
573.95	36591.06
574.15	36451.80
574.35	37096.91
574.55	36609.49
574.75	36515.28
574.95	36642.26
575.15	36425.17
575.34	36935.12
575.54	37395.91
575.74	36910.54
575.94	36969.93
576.14	36787.66
576.34	37221.83
576.54	36984.27
576.74	37141.96
576.94	37139.91
577.14	37025.23
577.34	37445.06
577.54	37047.75
577.74	37385.67
577.94	36935.12
578.14	37127.63
578.34	37170.63
578.54	37307.85
578.74	36892.11
578.94	37678.53
579.14	37121.48
579.34	37154.25
579.54	37354.95
579.74	37393.86
579.94	37537.22
580.13	37207.50
580.33	37653.95
580.53	37473.73
580.73	37524.93
580.93	37821.89
581.13	37316.04
581.33	38057.40
581.53	37412.29
581.73	37715.39
581.93	37830.08
582.13	37789.12
582.33	37830.08
582.53	37653.95
582.73	37580.23
582.92	37694.91
583.12	38215.10
583.32	37889.47
583.52	37866.94
583.72	38053.31
583.92	38149.56
584.12	37705.15
584.32	38229.43
584.52	38151.61
584.72	38086.07
584.92	38372.79
585.11	38739.38
585.31	38284.73
585.51	38362.55
585.71	38362.55
585.91	38237.62
586.11	38084.03
586.31	38290.87
586.51	38211.00
586.71	38245.82
586.91	38483.38
587.10	38360.50
587.30	38395.32
587.50	38491.57
587.70	38663.60
587.90	38555.06
588.10	38665.65
588.30	38106.55
588.50	38931.89
588.69	38702.51
588.89	38856.11
589.09	38233.53
589.29	38548.92
589.49	38794.67
589.69	38266.30
589.89	38845.87
590.08	38679.99
590.28	38960.56
590.48	38837.68
590.68	38462.90
590.88	38854.06
591.08	38872.49
591.28	38561.20
591.47	39089.58
591.67	39077.29
591.87	38866.35
592.07	38897.07
592.27	39028.14
592.47	39327.14
592.67	38925.74
592.86	38653.36
593.06	38899.12
593.26	38995.37
593.46	39294.38
593.66	39368.10
593.86	38931.89
594.05	39284.14
594.25	39245.23
594.45	38712.75
594.65	38888.88
594.85	38636.98
595.05	39316.90
595.24	39579.04
595.44	39011.76
595.64	39284.14
595.84	39196.07
596.04	39427.49
596.23	39452.07
596.43	39415.21
596.63	39452.07
596.83	39294.38
597.03	39347.62
597.22	39593.38
597.42	39249.32
597.62	39824.80
597.82	39521.70
598.02	39460.26
598.21	39708.07
598.41	39325.10
598.61	39372.20
598.81	39493.03
599.01	39667.11
599.20	39337.38
599.40	39771.55
599.60	39736.74
599.80	39585.19
600.00	39673.25
600.19	39783.84
600.39	39220.65
600.59	39794.08
600.79	39736.74
600.98	39476.65
601.18	39966.11
601.38	39771.55
601.58	39941.53
601.78	39953.82
601.97	39755.17
602.17	39863.71
602.37	40431.00
602.57	39968.16
602.76	40293.79
602.96	40052.12
603.16	40504.73
603.36	40168.86
603.55	40555.93
603.75	40246.68
603.95	40183.19
604.15	40082.84
604.34	40508.82
604.54	40281.50
604.74	40252.83
604.94	40539.54
605.13	40359.32
605.33	40310.17
605.53	40205.72
605.73	40463.77
605.92	40627.60
606.12	40355.22
606.32	40557.97
606.52	40519.06
606.71	40557.97
606.91	40850.83
607.11	40408.47
607.30	40596.88
607.50	40787.35
607.70	40617.36
607.90	40754.58
608.09	40701.33
608.29	40633.75
608.49	40748.43
608.68	40496.53
608.88	40926.61
609.08	40990.09
609.28	40695.19
609.47	40674.71
609.67	41065.87
609.87	40764.82
610.06	41074.06
610.26	40662.42
610.46	40797.59
610.66	40443.29
610.85	40883.60
611.05	40486.29
611.25	40740.24
611.44	40826.26
611.64	40764.82
611.84	40619.41
612.03	40351.13
612.23	40646.04
612.43	41018.77
612.62	40891.79
612.82	40687.00
613.02	40699.28
613.21	40805.78
613.41	40768.91
613.61	40867.22
613.80	40349.08
614.00	40832.40
614.20	40830.35
614.39	40609.17
614.59	40912.27
614.79	40773.01
614.98	40523.16
615.18	40508.82
615.38	40768.91
615.57	40416.66
615.77	40760.72
615.97	40775.06
616.16	40623.51
616.36	40805.78
616.56	40670.61
616.75	40678.80
616.95	40785.30
617.15	40547.73
617.34	40883.60
617.54	40519.06
617.74	40517.01
617.93	40639.89
618.13	40326.55
618.32	40957.33
618.52	40648.08
618.72	40813.97
618.91	40299.93
619.11	40220.06
619.31	40476.05
619.50	40105.37
619.70	40471.96
619.90	40148.38
620.09	40361.37
620.29	40072.60
620.48	40150.43
620.68	40547.73
620.88	40246.68
621.07	40097.18
621.27	40187.29
621.46	39986.59
621.66	40304.02
621.86	40045.98
622.05	40435.10
622.25	40127.90
622.44	40304.02
622.64	39945.63
622.84	40285.59
623.03	39591.33
623.23	40185.24
623.42	40263.07
623.62	40310.17
623.82	40394.14
624.01	40052.12
624.21	40410.52
624.40	39818.66
624.60	40066.46
624.80	39843.23
624.99	40097.18
625.19	39757.22
625.38	40256.92
625.58	39894.43
625.77	40166.81
625.97	40029.60
626.17	39728.55
626.36	40058.27
626.56	39820.70
626.75	39490.98
626.95	39736.74
627.14	39628.20
627.34	40160.67
627.54	39777.70
627.73	39972.25
627.93	39789.98
628.12	39472.55
628.32	39921.05
628.51	39609.76
628.71	39660.96
628.90	39888.29
629.10	39392.68
629.30	39751.07
629.49	39732.64
629.69	39787.94
629.88	39355.82
630.08	39988.64
630.27	39806.37
630.47	39888.29
630.66	39679.39
630.86	40058.27
631.05	39341.48
631.25	40082.84
631.44	39605.67
631.64	39781.79
631.84	39366.06
632.03	39695.78
632.23	39810.46
632.42	39974.30
632.62	39771.55
632.81	39255.46
633.01	39527.84
633.20	39859.62
633.40	39751.07
633.59	39663.01
633.79	39396.77
633.98	39722.40
634.18	39329.19
634.37	39509.41
634.57	39583.14
634.76	39980.45
634.96	39761.31
635.15	39419.30
635.35	39523.75
635.54	39388.58
635.74	39642.53
635.93	39452.07
636.13	39503.27
636.32	39548.32
636.52	39173.55
636.71	39656.87
636.91	39718.31
637.10	39581.09
637.30	39650.72
637.49	39187.88
637.69	39273.90
637.88	39683.49
638.08	38917.55
638.27	39742.88
638.46	39017.90
638.66	39185.83
638.85	39130.54
639.05	39259.56
639.24	39581.09
639.44	39247.27
639.63	39306.66
639.83	39290.28
640.02	39460.26
640.22	39493.03
640.41	39306.66
640.61	39009.71
640.80	39806.37
640.99	39103.92
641.19	39402.92
641.38	39552.42
641.58	39044.52
641.77	39007.66
641.97	38993.32
642.16	39282.09
642.36	39329.19
642.55	39429.54
642.74	38960.56
642.94	39683.49
643.13	39206.31
643.33	39351.72
643.52	39671.20
643.72	39454.12
643.91	38958.51
644.10	39423.40
644.30	39447.97
644.49	39562.66
644.69	39429.54
644.88	39441.83
645.08	39087.53
645.27	39300.52
645.46	39294.38
645.66	39474.60
645.85	39364.01
646.05	38907.31
646.24	39036.33
646.43	39140.78
646.63	39464.36
646.82	39593.38
647.02	39288.23
647.21	39626.15
647.40	39572.90
647.60	39407.01
647.79	39708.07
647.99	39292.33
648.18	39329.19
648.37	39710.11
648.57	39294.38
648.76	39482.79
648.96	39261.61
649.15	39480.74
649.34	39204.27
649.54	39194.03
649.73	39470.50
649.92	39394.73
650.12	39095.72
650.31	39265.70
650.51	39464.36
650.70	39234.99
650.89	39261.61
651.09	39482.79
651.28	39179.69
651.47	39325.10
651.67	39374.25
651.86	39708.07
652.06	38727.09
652.25	39306.66
652.44	39267.75
652.64	39054.76
652.83	39345.58
653.02	39253.42
653.22	38958.51
653.41	38915.50
653.60	39234.99
653.80	39202.22
653.99	39110.06
654.18	39015.85
654.38	39261.61
654.57	39316.90
654.76	38755.76
654.96	39146.92
655.15	39073.20
655.34	39040.43
655.54	38929.84
655.73	39001.52
655.92	39161.26
656.12	39128.49
656.31	38561.20
656.50	38989.23
656.70	39228.84
656.89	39116.20
657.08	39101.87
657.28	39220.65
657.47	39409.06
657.66	39542.18
657.86	38606.26
658.05	38921.65
658.24	39394.73
658.43	38901.17
658.63	39130.54
658.82	38933.93
659.01	38854.06
659.21	39298.47
659.40	39321.00
659.59	38948.27
659.79	38659.51
659.98	39155.11
660.17	38892.97
660.36	38702.51
660.56	39112.11
660.75	38833.58
660.94	39157.16
661.14	38999.47
661.33	38467.00
661.52	38346.17
661.71	38899.12
661.91	38534.58
662.10	38809.01
662.29	38735.28
662.49	38872.49
662.68	38862.26
662.87	39105.96
663.06	38700.47
663.26	38700.47
663.45	39286.18
663.64	38798.77
663.83	39173.55
664.03	38768.05
664.22	38665.65
664.41	38931.89
664.60	38749.62
664.80	38786.48
664.99	38661.55
665.18	38462.90
665.37	38643.12
665.57	38798.77
665.76	38487.48
665.95	38821.30
666.14	38921.65
666.34	38512.05
666.53	38628.79
666.72	38489.52
666.91	38684.08
667.11	38270.39
667.30	38524.34
667.49	38722.99
667.68	38319.54
667.87	38038.97
668.07	38370.74
668.26	38217.14
668.45	38360.50
668.64	37952.96
668.84	38700.47
669.03	38589.88
669.22	38557.11
669.41	38147.51
669.60	38225.34
669.80	37879.23
669.99	38653.36
670.18	38294.97
670.37	38227.38
670.57	38274.49
670.76	37899.71
670.95	37967.29
671.14	38102.46
671.33	37969.34
671.53	38430.13
671.72	37963.20
671.91	37797.31
672.10	37989.82
672.29	38245.82
672.48	37748.16
672.68	38219.19
672.87	37721.54
673.06	37926.33
673.25	37744.06
673.44	37823.93
673.64	37717.44
673.83	38075.84
674.02	37707.20
674.21	37729.73
674.40	38288.82
674.59	38147.51
674.79	37854.65
674.98	37539.27
675.17	37656.00
675.36	37508.55
675.55	37787.07
675.74	37787.07
675.94	37758.40
676.13	38016.44
676.32	37629.38
676.51	37901.76
676.70	37561.79
676.89	37553.60
677.08	37946.81
677.28	37348.81
677.47	37977.53
677.66	37619.14
677.85	37330.37
678.04	37819.84
678.23	37578.18
678.42	37639.62
678.62	37856.70
678.81	37682.62
679.00	37414.34
679.19	37868.99
679.38	37520.84
679.57	37481.92
679.76	37146.06
679.96	37389.77
680.15	37209.54
680.34	37453.25
680.53	37369.29
680.72	36971.98
680.91	37361.09
681.10	37479.88
681.29	37293.51
681.48	37266.89
681.68	37141.96
681.87	37121.48
682.06	36836.81
682.25	36906.44
682.44	36963.79
682.63	37219.78
682.82	36824.53
683.01	37244.36
683.20	36578.77
683.39	36933.07
683.59	36529.62
683.78	36341.21
683.97	36654.54
684.16	36632.02
684.35	36726.22
684.54	36298.20
684.73	36742.61
684.92	36287.96
685.11	36511.19
685.30	36619.73
685.49	36664.78
685.69	36699.60
685.88	36535.76
686.07	36296.15
686.26	36509.14
686.45	36500.95
686.64	36472.28
686.83	36265.43
687.02	36591.06
687.21	36052.44
687.40	36292.05
687.59	36515.28
687.78	36591.06
687.97	36404.69
688.16	36193.75
688.35	36122.07
688.54	36177.37
688.74	36406.74
688.93	35904.99
689.12	36470.23
689.31	35818.97
689.50	36265.43
689.69	35843.55
689.88	35943.90
690.07	35939.80
690.26	35796.45
690.45	36054.49
690.64	36335.06
690.83	35907.04
691.02	35605.98
691.21	35818.97
691.40	35370.47
691.59	35745.25
691.78	35593.70
691.97	35935.71
692.16	35433.96
692.35	35618.27
692.54	35661.28
692.73	35638.75
692.92	35519.97
693.11	35411.43
693.30	35112.42
693.49	35270.12
693.68	35464.67
693.87	35526.11
694.06	35352.04
694.25	35347.94
694.44	35536.35
694.63	35352.04
694.82	35472.87
695.01	35304.93
695.20	35323.36
695.39	34842.09
695.58	34983.40
695.77	35089.90
695.96	34848.24
696.15	35057.13
696.34	34719.21
696.53	34946.54
696.72	34704.88
696.91	34928.11
697.10	35044.84
697.29	34469.36
697.48	34893.29
697.67	34493.94
697.86	34426.35
698.05	34547.18
698.24	34842.09
698.43	34637.30
698.62	34694.64
698.81	34584.05
699.00	34840.04
699.19	34360.82
699.38	34096.63
699.57	34149.88
699.76	34711.02
699.95	34547.18
700.14	34600.43
700.32	34264.57
700.51	33983.99
700.70	34571.76
700.89	34334.20
701.08	34207.22
701.27	34020.86
701.46	34119.16
701.65	33510.91
701.84	34125.30
702.03	34104.82
702.22	33906.17
702.41	33558.02
702.60	33979.90
702.79	33918.46
702.98	33713.66
703.17	33885.69
703.35	33836.54
703.54	33725.95
703.73	34190.84
703.92	33558.02
704.11	33844.73
704.30	33578.50
704.49	33560.06
704.68	33777.15
704.87	33551.87
705.06	33469.95
705.25	33367.55
705.43	33287.68
705.62	33721.85
705.81	33183.24
706.00	33476.10
706.19	33093.13
706.38	33537.54
706.57	33265.16
706.76	32996.87
706.95	33428.99
707.14	33226.24
707.32	33021.45
707.51	32945.67
707.70	33209.86
707.89	33015.30
708.08	32931.34
708.27	33209.86
708.46	32865.80
708.65	32871.95
708.84	33070.60
709.02	33181.19
709.21	32796.17
709.40	32962.06
709.59	32677.39
709.78	32865.80
709.97	32685.58
710.16	32812.56
710.34	32529.94
710.53	32527.89
710.72	32566.80
710.91	32695.82
711.10	32636.43
711.29	32603.66
711.48	32314.90
711.66	32208.40
711.85	32624.14
712.04	32275.99
712.23	32574.99
712.42	32386.58
712.61	32425.49
712.80	32294.42
712.98	32239.12
713.17	32126.49
713.36	31929.88
713.55	31823.39
713.74	32196.12
713.93	31837.72
714.11	31999.51
714.30	31850.01
714.49	31858.20
714.68	31708.70
714.87	31987.22
715.06	31764.00
715.24	31661.60
715.43	31929.88
715.62	31675.93
715.81	31612.45
716.00	31657.50
716.18	31405.60
716.37	31321.63
716.56	31256.10
716.75	31684.12
716.94	31387.17
717.12	31122.98
717.31	31268.39
717.50	31317.54
717.69	31393.31
717.88	31581.73
718.06	31305.25
718.25	31290.91
718.44	30996.01
718.63	31151.65
718.82	30936.62
719.00	31022.63
719.19	30795.31
719.38	30940.71
719.57	30772.78
719.76	30586.41
719.94	30529.07
720.13	30434.86
720.32	30785.07
720.51	30541.36
720.69	30627.37
720.88	30744.11
721.07	30336.56
721.26	30354.99
721.44	30068.28
721.63	30012.98
721.82	30281.27
722.01	30008.89
722.20	30236.21
722.38	29955.64
722.57	29802.04
722.76	29904.44
722.95	30228.02
723.13	30019.13
723.32	29593.15
723.51	29603.39
723.70	29892.15
723.88	29814.33
724.07	29793.85
724.26	29783.61
724.44	29224.51
724.63	29785.66
724.82	29861.43
725.01	29441.60
725.19	29570.62
725.38	29568.57
725.57	29414.98
725.76	29337.15
725.94	29103.68
726.13	29040.20
726.32	29281.86
726.51	28945.99
726.69	29580.86
726.88	29683.26
727.07	29169.22
727.25	29351.49
727.44	29326.91
727.63	29310.53
727.82	29052.48
728.00	29425.22
728.19	29195.84
728.38	29079.11
728.56	29054.53
728.75	29376.06
728.94	28905.03
729.12	29005.38
729.31	28802.63
729.50	29199.94
729.69	29326.91
729.87	28907.08
730.06	28866.12
730.25	29158.98
730.43	28931.65
730.62	28798.54
730.81	29120.07
730.99	28595.79
731.18	28794.44
731.37	28982.85
731.55	28819.02
731.74	28892.74
731.93	28786.25
732.11	28907.08
732.30	28655.18
732.49	28573.26
732.67	28456.53
732.86	28534.35
733.05	28493.39
733.23	28323.41
733.42	28440.14
733.61	28366.42
733.79	28216.91
733.98	28614.22
734.17	28229.20
734.35	28458.57
734.54	28048.98
734.73	28296.78
734.91	28321.36
735.10	28218.96
735.29	28298.83
735.47	27887.19
735.66	28184.15
735.84	28128.85
736.03	27950.68
736.22	28151.38
736.40	28032.60
736.59	27803.22
736.78	28180.05
736.96	27807.32
737.15	27864.66
737.33	27887.19
737.52	27782.74
737.71	27711.07
737.89	28012.12
738.08	27901.53
738.27	27582.04
738.45	27887.19
738.64	27711.07
738.82	27373.15
739.01	27526.75
739.20	27782.74
739.38	27604.57
739.57	27661.91
739.75	27635.29
739.94	27700.83
740.13	27719.26
740.31	27659.87
740.50	27387.49
740.68	27463.26
740.87	27475.55
741.06	27518.56
741.24	27160.16
741.43	27311.71
741.61	27545.18
741.80	27313.76
741.99	27096.67
742.17	27186.79
742.36	27225.70
742.54	26930.79
742.73	27278.94
742.91	27276.90
743.10	27131.49
743.29	27004.52
743.47	27358.81
743.66	26941.03
743.84	27305.57
744.03	26934.88
744.21	26717.80
744.40	26898.02
744.59	27031.14
744.77	26705.51
744.96	27000.42
745.14	26922.60
745.33	26826.34
745.51	26715.75
745.70	26914.41
745.88	26812.01
746.07	26842.73
746.26	26736.23
746.44	26488.43
746.63	26820.20
746.81	26529.39
747.00	26592.87
747.18	26474.09
747.37	26386.03
747.55	26515.05
747.74	26551.91
747.92	26238.58
748.11	26513.00
748.29	26513.00
748.48	26459.76
748.66	26535.53
748.85	26470.00
749.03	26138.23
749.22	26232.43
749.41	26066.55
749.59	26164.85
749.78	26158.70
749.96	25925.24
750.15	26154.61
750.33	26005.11
750.52	26078.83
750.70	25800.31
750.89	26201.71
751.07	25661.05
751.26	26031.73
751.44	25888.37
751.63	26150.51
751.81	25736.82
752.00	25808.50
752.18	26101.36
752.37	25929.33
752.55	25728.63
752.74	26066.55
752.92	25802.36
753.10	25425.53
753.29	25663.10
753.47	25798.26
753.66	25921.14
753.84	25597.56
754.03	25613.95
754.21	25267.84
754.40	25407.10
754.58	25482.88
754.77	25540.22
754.95	25462.40
755.14	25689.72
755.32	25439.87
755.51	25155.20
755.69	25353.85
755.88	25568.89
756.06	25001.60
756.24	25177.73
756.43	25339.52
756.61	24995.46
756.80	24979.07
756.98	25243.26
757.17	25083.52
757.35	25028.23
757.54	25001.60
757.72	25130.62
757.90	24948.36
758.09	25071.23
758.27	24874.63
758.46	24618.63
758.64	24704.65
758.83	25046.66
759.01	24841.86
759.19	24786.57
759.38	25009.79
759.56	24807.05
759.75	24768.13
759.93	24862.34
760.12	24946.31
760.30	24344.20
760.48	24741.51
760.67	24608.39
760.85	24526.47
761.04	24698.50
761.22	24411.79
761.40	24616.58
761.59	24682.12
761.77	24475.27
761.96	24209.04
762.14	24440.46
762.32	24088.21
762.51	24139.41
762.69	24104.59
762.88	24196.75
763.06	24295.05
763.24	24473.23
763.43	24247.95
763.61	24374.92
763.80	24280.72
763.98	24045.20
764.16	24096.40
764.35	23740.05
764.53	23754.39
764.72	23967.38
764.90	23936.66
765.08	23715.48
765.27	23856.79
765.45	23738.01
765.63	23852.69
765.82	23547.54
766.00	23658.14
766.18	23602.84
766.37	23844.50
766.55	23590.55
766.74	23553.69
766.92	23512.73
767.10	23578.26
767.29	23580.31
767.47	23258.78
767.65	23854.74
767.84	23496.35
768.02	23699.09
768.20	23287.45
768.39	23279.26
768.57	23805.59
768.75	23359.13
768.94	23379.61
769.12	23232.16
769.30	23281.31
769.49	23203.49
769.67	23244.45
769.85	23096.99
770.04	23201.44
770.22	23023.26
770.40	23017.12
770.59	22822.56
770.77	23142.05
770.95	22734.50
771.14	22851.24
771.32	22634.15
771.50	22718.12
771.69	22857.38
771.87	23078.56
772.05	22640.29
772.24	22541.99
772.42	22677.16
772.60	22496.94
772.78	22482.60
772.97	22365.87
773.15	22668.97
773.33	22648.49
773.52	22210.22
773.70	22404.78
773.88	22570.66
774.07	22580.90
774.25	22818.47
774.43	22556.33
774.61	22421.16
774.80	22734.50
774.98	22384.30
775.16	22550.18
775.34	22707.88
775.53	22754.98
775.71	22843.04
775.89	22455.98
776.08	22341.29
776.26	22601.38
776.44	22494.89
776.62	22400.68
776.81	22453.93
776.99	22617.77
777.17	22351.53
777.35	22515.37
777.54	22707.88
777.72	22318.76
777.90	22480.55
778.08	22519.46
778.27	22361.77
778.45	22892.19
778.63	22746.79
778.81	22656.68
779.00	22800.04
779.18	22703.78
779.36	23060.13
779.54	22769.32
779.73	22668.97
779.91	22507.18
780.09	22804.13
780.27	22963.87
780.46	22791.84
780.64	22546.09
780.82	22681.25
781.00	22728.36
781.19	22699.69
781.37	22910.63
781.55	22685.35
781.73	22947.49
781.91	22613.67
782.10	22711.97
782.28	22679.21
782.46	22671.01
782.64	22976.16
782.82	22804.13
783.01	22523.56
783.19	22515.37
783.37	22871.72
783.55	22771.36
783.74	22847.14
783.92	22666.92
784.10	23154.33
784.28	23178.91
784.46	22693.54
784.64	22673.06
784.83	22746.79
785.01	22777.51
785.19	22703.78
785.37	22826.66
785.55	22775.46
785.74	22419.11
785.92	22396.59
786.10	22640.29
786.28	22562.47
786.46	22531.75
786.64	22171.31
786.83	22613.67
787.01	22660.77
787.19	22783.65
787.37	22484.65
787.55	22437.55
787.74	22331.05
787.92	22640.29
788.10	22177.45
788.28	22286.00
788.46	22163.12
788.64	22163.12
788.82	22408.87
789.01	22085.30
789.19	22220.46
789.37	21843.63
789.55	22075.06
789.73	22210.22
789.91	22101.68
790.09	21927.60
790.28	22146.73
790.46	21790.39
790.64	22107.82
790.82	21827.25
791.00	21669.56
791.18	21874.35
791.36	21671.61
791.55	21939.89
791.73	21737.14
791.91	21415.61
792.09	21640.89
792.27	21403.32
792.45	21475.00
792.63	21448.38
792.81	21231.29
793.00	21171.90
793.18	21268.16
793.36	21188.28
793.54	21245.63
793.72	21216.96
793.90	21137.09
794.08	21087.93
794.26	21180.09
794.44	20995.78
794.62	20475.59
794.81	20934.34
794.99	20891.33
795.17	20905.66
795.35	20704.96
795.53	20944.58
795.71	20836.03
795.89	20727.49
796.07	20217.55
796.25	20246.22
796.43	20623.05
796.61	20217.55
796.80	20432.58
796.98	20549.32
797.16	20270.79
797.34	20371.15
797.52	20371.15
797.70	20313.80
797.88	20442.82
798.06	20154.06
798.24	20000.46
798.42	19934.93
798.60	19857.10
798.78	20229.84
798.96	20043.47
799.14	19910.35
799.32	19697.36
799.51	19685.08
799.69	19756.75
799.87	19816.15
800.05	19445.46
800.23	19603.16
800.41	19547.86
800.59	19443.42
800.77	19539.67
800.95	19115.74
801.13	19381.98
801.31	19361.50
801.49	19619.54
801.67	19105.50
801.85	19123.93
802.03	19189.47
802.21	19044.06
802.39	19138.27
802.57	18736.87
802.75	18962.14
802.93	18687.71
803.11	18951.90
803.29	18798.31
803.47	18896.61
803.65	18681.57
803.83	18644.71
804.01	18831.07
804.19	18472.68
804.37	18636.52
804.55	18702.05
804.73	18833.12
804.91	18487.01
805.09	18724.58
805.27	18444.01
805.45	18505.45
805.63	18532.07
805.81	18409.19
805.99	18286.31
806.17	18331.37
806.35	18411.24
806.53	18192.11
806.71	18149.10
806.89	17868.53
807.07	17999.60
807.25	17923.82
807.43	17899.25
807.61	18020.08
807.79	17895.15
807.97	17796.85
808.15	18022.12
808.33	17686.26
808.51	17628.92
808.69	17696.50
808.87	17676.02
809.05	17665.78
809.23	17469.17
809.41	17280.76
809.59	17428.21
809.77	17444.60
809.95	17323.77
810.13	17385.21
810.31	17114.87
810.49	17436.41
810.67	17338.10
810.84	17483.51
811.02	17299.19
811.20	17125.11
811.38	17231.61
811.56	17065.72
811.74	17129.21
811.92	16875.26
812.10	17049.34
812.28	16961.28
812.46	16957.18
812.64	17020.67
812.82	16852.73
813.00	16670.47
813.18	16707.33
813.36	16713.47
813.53	16686.85
813.71	16514.82
813.89	16850.69
814.07	16559.88
814.25	16668.42
814.43	16766.72
814.61	16594.69
814.79	16611.07
814.97	16680.71
815.15	16332.55
815.33	16426.76
815.50	16332.55
815.68	16357.13
815.86	16400.13
816.04	16387.85
816.22	16307.98
816.40	16181.00
816.58	16285.45
816.76	15988.49
816.94	16031.50
817.11	16459.52
817.29	15992.59
817.47	16060.17
817.65	15925.00
817.83	15873.81
818.01	15851.28
818.19	15765.26
818.37	15929.10
818.54	15734.54
818.72	15851.28
818.90	15781.65
819.08	15738.64
819.26	15494.93
819.44	15699.73
819.62	15738.64
819.80	15494.93
819.97	15492.88
820.15	15660.82
820.33	15630.10
820.51	15763.22
820.69	15384.34
820.87	15421.20
821.05	15597.33
821.22	15511.32
821.40	15580.95
821.58	15238.94
821.76	15292.18
821.94	15552.27
822.12	15140.63
822.29	15421.20
822.47	15216.41
822.65	15550.23
822.83	15040.28
823.01	15148.82
823.19	15234.84
823.36	14892.83
823.54	15005.47
823.72	15212.31
823.90	15154.97
824.08	15077.15
824.25	15001.37
824.43	14917.40
824.61	15025.95
824.79	15142.68
824.97	14939.93
825.15	14962.46
825.32	14874.40
825.50	14806.81
825.68	15017.75
825.86	14987.04
826.04	14665.50
826.21	14911.26
826.39	14591.78
826.57	14599.97
826.75	14483.24
826.93	14612.26
827.10	14604.07
827.28	14692.13
827.46	14554.91
827.64	14393.12
827.81	14485.28
827.99	14577.44
828.17	14425.89
828.35	14489.38
828.53	14384.93
828.70	14309.16
828.88	14327.59
829.06	14425.89
829.24	14167.85
829.41	14124.84
829.59	14311.21
829.77	13979.43
829.95	13963.05
830.12	14100.26
830.30	14237.48
830.48	14065.45
830.66	14065.45
830.84	14028.59
831.01	14257.96
831.19	13969.19
831.37	14051.11
831.55	13889.32
831.72	14049.07
831.90	13905.71
832.08	14004.01
832.25	14032.68
832.43	13750.06
832.61	13827.88
832.79	13670.19
832.96	13838.12
833.14	13891.37
833.32	13741.87
833.50	13672.24
833.67	13725.49
833.85	13692.72
834.03	13676.34
834.20	13725.49
834.38	13473.59
834.56	13764.40
834.74	13545.27
834.91	13360.95
835.09	13363.00
835.27	13520.69
835.44	13393.72
835.62	13258.55
835.80	13449.01
835.98	13571.89
836.15	13354.80
836.33	13291.32
836.51	13467.44
836.68	13403.96
836.86	13354.80
837.04	13299.51
837.21	13229.88
837.39	13315.89
837.57	13481.78
837.75	13268.79
837.92	13178.68
838.10	13180.73
838.28	13080.38
838.45	13182.77
838.63	13107.00
838.81	13047.61
838.98	13010.75
839.16	13029.18
839.34	12904.25
839.51	13023.03
839.69	12818.24
839.87	12900.16
840.04	12707.65
840.22	12990.27
840.40	12902.20
840.57	12883.77
840.75	12621.63
840.93	12640.06
841.10	12824.38
841.28	13135.67
841.46	12906.30
841.63	12721.98
841.81	12701.50
841.98	12783.42
842.16	12703.55
842.34	12652.35
842.51	12658.49
842.69	12660.54
842.87	12496.71
843.04	12771.13
843.22	12470.08
843.40	12377.92
843.57	12502.85
843.75	12568.38
843.92	12506.95
844.10	12650.30
844.28	12603.20
844.45	12609.34
844.63	12498.75
844.81	12224.33
844.98	12506.95
845.16	12414.79
845.33	12308.29
845.51	12441.41
845.69	12275.52
845.86	12240.71
846.04	12244.81
846.21	12242.76
846.39	12216.13
846.57	12078.92
846.74	12136.26
846.92	11898.70
847.09	12095.30
847.27	12087.11
847.45	12232.52
847.62	12281.67
847.80	11974.47
847.97	12185.41
848.15	12011.34
848.32	11923.27
848.50	12193.61
848.68	12099.40
848.85	12052.30
849.03	11874.12
849.20	12138.31
849.38	12128.07
849.56	11972.43
849.73	11966.28
849.91	11792.20
850.08	12007.24
850.26	11738.96
850.43	11953.99
850.61	11804.49
850.78	11910.99
850.96	11790.16
851.14	11898.70
851.31	11749.20
851.49	11583.31
851.66	11661.13
851.84	11634.51
852.01	11704.14
852.19	11802.44
852.36	11554.64
852.54	11786.06
852.71	11755.34
852.89	11413.33
853.07	11550.54
853.24	11556.69
853.42	11548.50
853.59	11698.00
853.77	11683.66
853.94	11513.68
854.12	11566.93
854.29	11485.01
854.47	11507.54
854.64	11544.40
854.82	11419.47
854.99	11212.63
855.17	11495.25
855.34	11278.16
855.52	11622.22
855.69	11456.34
855.87	11251.54
856.04	11179.86
856.22	11349.84
856.39	11401.04
856.57	11120.47
856.74	11022.17
856.92	11360.08
857.09	11165.53
857.27	11190.10
857.44	11282.26
857.62	11312.98
857.79	11188.05
857.97	11102.04
858.14	11233.11
858.32	11079.51
858.49	11036.50
858.67	11042.65
858.84	11016.02
859.02	10872.67
859.19	10907.48
859.37	11040.60
859.54	11056.98
859.72	10909.53
859.89	10977.11
860.06	11007.83
860.24	10788.70
860.41	10739.55
860.59	10735.45
860.76	10837.85
860.94	10764.12
861.11	10725.21
861.29	10755.93
861.46	10692.44
861.64	10704.73
861.81	10680.16
861.98	10510.18
862.16	10729.31
862.33	10747.74
862.51	10592.09
862.68	10674.01
862.86	10704.73
863.03	10270.56
863.21	10569.57
863.38	10657.63
863.55	10626.91
863.73	10585.95
863.90	10532.70
864.08	10495.84
864.25	10508.13
864.43	10481.50
864.60	10514.27
864.77	10354.53
864.95	10329.95
865.12	10319.71
865.30	10264.42
865.47	10358.63
865.64	10352.48
865.82	10219.36
865.99	10399.59
866.17	10389.35
866.34	10346.34
866.51	10104.68
866.69	10274.66
866.86	10405.73
867.04	10223.46
867.21	9961.32
867.38	10043.24
867.56	10202.98
867.73	10096.49
867.91	9992.04
868.08	10102.63
868.25	10102.63
868.43	10037.09
868.60	10051.43
868.78	10004.33
868.95	10168.16
869.12	10012.52
869.30	10018.66
869.47	9967.46
869.64	9944.94
869.82	9920.36
869.99	9762.67
870.16	9887.59
870.34	9916.26
870.51	9989.99
870.69	9758.57
870.86	9850.73
871.03	9850.73
871.21	9582.45
871.38	9666.41
871.55	9557.87
871.73	9721.71
871.90	9625.45
872.07	9529.20
872.25	9320.31
872.42	9709.42
872.59	9344.88
872.77	9453.42
872.94	9475.95
873.11	9428.85
873.29	9590.64
873.46	9312.11
873.63	9422.70
873.81	9351.03
873.98	9336.69
874.15	9316.21
874.33	9361.27
874.50	9113.46
874.67	9228.15
874.85	9256.82
875.02	9168.76
875.19	9090.93
875.37	9135.99
875.54	9105.27
875.71	9291.63
875.88	9152.37
876.06	9299.83
876.23	9176.95
876.40	8939.38
876.58	8970.10
876.75	8957.82
876.92	8787.83
877.10	8900.47
877.27	9027.45
877.44	8785.79
877.61	8955.77
877.79	8933.24
877.96	8963.96
878.13	8968.06
878.31	8800.12
878.48	8841.08
878.65	8945.53
878.82	8830.84
879.00	8830.84
879.17	8691.58
879.34	8832.89
879.51	8671.10
879.69	8654.72
879.86	8634.24
880.03	8736.63
880.21	8570.75
880.38	8554.37
880.55	8828.79
880.72	8648.57
880.90	8585.08
881.07	8535.93
881.24	8677.24
881.41	8812.41
881.59	8658.81
881.76	8527.74
881.93	8662.91
882.10	8656.76
882.28	8488.83
882.45	8513.41
882.62	8564.61
882.79	8400.77
882.96	8300.42
883.14	8417.15
883.31	8413.06
883.48	8310.66
883.65	8507.26
883.83	8392.58
884.00	8333.18
884.17	8253.31
884.34	8503.17
884.51	8421.25
884.69	8294.27
884.86	8198.02
885.03	8226.69
885.20	8091.52
885.38	8290.18
885.55	8288.13
885.72	8224.64
885.89	8218.50
886.06	8335.23
886.24	8148.87
886.41	8339.33
886.58	8384.38
886.75	8173.44
886.92	8134.53
887.10	8109.96
887.27	8069.00
887.44	8351.62
887.61	8167.30
887.78	8120.20
887.95	8136.58
888.13	7968.65
888.30	8238.98
888.47	7982.98
888.64	8036.23
888.81	7999.37
888.99	7935.88
889.16	7987.08
889.33	7925.64
889.50	7909.26
889.67	8025.99
889.84	7866.25
890.01	7999.37
890.19	7882.63
890.36	8003.46
890.53	7982.98
890.70	7905.16
890.87	7702.41
891.04	7663.50
891.22	7921.54
891.39	7681.93
891.56	7737.23
891.73	7757.71
891.90	7659.40
892.07	7749.51
892.24	7804.81
892.42	7788.43
892.59	7827.34
892.76	7661.45
892.93	7733.13
893.10	7622.54
893.27	7661.45
893.44	7688.07
893.61	7665.55
893.79	7608.20
893.96	7686.03
894.13	7571.34
894.30	7712.65
894.47	7634.83
894.64	7679.88
894.81	7524.24
894.98	7735.18
895.15	7669.64
895.33	7526.29
895.50	7493.52
895.67	7729.03
895.84	7522.19
896.01	7663.50
896.18	7489.42
896.35	7481.23
896.52	7460.75
896.69	7481.23
896.86	7604.11
897.04	7436.17
897.21	7554.96
897.38	7534.48
897.55	7483.28
897.72	7575.44
897.89	7577.48
898.06	7458.70
898.23	7538.57
898.40	7653.26
898.57	7473.04
898.74	7442.32
898.91	7329.68
899.08	7491.47
899.26	7409.55
899.43	7315.34
899.60	7423.89
899.77	7475.09
899.94	7458.70
900.11	7276.43
900.28	7446.41
900.45	7536.52
900.62	7309.20
900.79	7378.83
900.96	7384.98
901.13	7458.70
901.30	7348.11
901.47	7356.30
901.64	7374.74
901.81	7348.11
901.98	7331.73
902.15	7346.06
902.32	7178.13
902.49	7296.91
902.66	7309.20
902.83	7319.44
903.01	7167.89
903.18	7382.93
903.35	7323.54
903.52	7360.40
903.69	7460.75
903.86	7305.10
904.03	7311.25
904.20	7493.52
904.37	7272.34
904.54	7415.69
904.71	7315.34
904.88	7337.87
905.05	7163.79
905.22	7268.24
905.39	7159.70
905.56	7405.46
905.73	7397.26
905.90	7268.24
906.07	7247.76
906.24	7186.32
906.41	7329.68
906.58	7309.20
906.75	7282.58
906.92	7149.46
907.09	7202.71
907.26	7292.82
907.43	7171.99
907.60	7202.71
907.77	7208.85
907.93	7176.08
908.10	7157.65
908.27	7141.27
908.44	7278.48
908.61	7104.40
908.78	7106.45
908.95	7249.81
909.12	7135.12
909.29	7128.98
909.46	7110.55
909.63	7276.43
909.80	7225.23
909.97	7114.64
910.14	7014.29
910.31	7014.29
910.48	7096.21
910.65	7069.59
910.82	6905.75
910.99	7165.84
911.16	7042.96
911.33	7045.01
911.50	6963.09
911.66	6915.99
911.83	6881.18
912.00	7028.63
912.17	7010.20
912.34	6959.00
912.51	6913.94
912.68	6801.30
912.85	6842.26
913.02	7126.93
913.19	6809.50
913.36	6813.59
913.53	6825.88
913.70	6866.84
913.86	6856.60
914.03	6875.03
914.20	6938.52
914.37	6746.01
914.54	6813.59
914.71	6737.82
914.88	6766.49
915.05	6778.78
915.22	6684.57
915.39	6780.82
915.55	6795.16
915.72	6649.75
915.89	6723.48
916.06	6694.81
916.23	6711.19
916.40	6676.38
916.57	6533.02
916.74	6659.99
916.91	6557.60
917.07	6438.81
917.24	6412.19
917.41	6506.40
917.58	6563.74
917.75	6508.44
917.92	6397.85
918.09	6475.68
918.26	6381.47
918.42	6373.28
918.59	6451.10
918.76	6463.39
918.93	6311.84
919.10	6268.83
919.27	6274.98
919.44	6338.46
919.60	6442.91
919.77	6379.42
919.94	6221.73
920.11	6238.11
920.28	6348.70
920.45	6096.80
920.61	6072.23
920.78	6102.95
920.95	6043.56
921.12	6064.04
921.29	6143.91
921.46	6102.95
921.62	6127.52
921.79	6037.41
921.96	6070.18
922.13	6084.52
922.30	6012.84
922.47	5969.83
922.63	5781.42
922.80	5957.54
922.97	6021.03
923.14	5801.90
923.31	5834.66
923.47	5836.71
923.64	5957.54
923.81	5754.79
923.98	5793.70
924.15	5810.09
924.32	5805.99
924.48	5711.78
924.65	5744.55
924.82	5633.96
924.99	5650.35
925.15	5513.13
925.32	5728.17
925.49	5670.83
925.66	5765.03
925.83	5515.18
925.99	5586.86
926.16	5590.95
926.33	5539.76
926.50	5390.25
926.67	5500.84
926.83	5386.16
927.00	5291.95
927.17	5392.30
927.34	5347.25
927.50	5275.57
927.67	5525.42
927.84	5320.62
928.01	5328.81
928.17	5353.39
928.34	5230.51
928.51	5152.69
928.68	5203.89
928.84	5220.27
929.01	5062.58
929.18	5207.98
929.35	5142.45
929.51	5046.20
929.68	5109.68
929.85	5109.68
930.02	4892.60
930.18	4980.66
930.35	5076.91
930.52	5078.96
930.69	4960.18
930.85	4986.80
931.02	4896.69
931.19	5031.86
931.36	4884.41
931.52	4876.21
931.69	4874.17
931.86	4802.49
932.02	4782.01
932.19	4767.67
932.36	4745.14
932.53	4798.39
932.69	4818.87
932.86	4816.82
933.03	4640.70
933.19	4657.08
933.36	4591.55
933.53	4687.80
933.70	4620.22
933.86	4661.18
934.03	4618.17
934.20	4419.52
934.36	4542.39
934.53	4394.94
934.70	4411.32
934.86	4530.11
935.03	4446.14
935.20	4341.69
935.36	4376.51
935.53	4308.93
935.70	4313.02
935.86	4214.72
936.03	4227.01
936.20	4116.42
936.36	4093.89
936.53	4143.04
936.70	4249.54
936.86	4130.75
937.03	3983.30
937.20	4143.04
937.36	4036.55
937.53	3925.96
937.70	3837.89
937.86	3858.37
938.03	3715.02
938.20	3893.19
938.36	3901.38
938.53	3823.56
938.70	3678.15
938.86	3715.02
939.03	3620.81
939.20	3559.37
939.36	3678.15
939.53	3596.23
939.70	3696.58
939.86	3459.02
940.03	3475.40
940.19	3479.50
940.36	3530.70
940.53	3432.40
940.69	3399.63
940.86	3336.14
941.03	3532.75
941.19	3274.70
941.36	3313.61
941.52	3233.74
941.69	3319.76
941.86	3164.11
942.02	3172.30
942.19	3143.63
942.35	3250.13
942.52	3106.77
942.69	3303.37
942.85	3112.91
943.02	3147.73
943.18	3043.28
943.35	3061.71
943.52	2967.51
943.68	2938.84
943.85	3071.95
944.01	3022.80
944.18	3000.27
944.35	2987.99
944.51	2871.25
944.68	2904.02
944.84	2926.55
945.01	2965.46
945.17	2887.64
945.34	2858.96
945.51	2867.16
945.67	2895.83
945.84	2879.44
946.00	2813.91
946.17	2846.68
946.33	2830.29
946.50	2914.26
946.67	2791.38
946.83	2904.02
947.00	2807.77
947.16	2850.77
947.33	2799.57
947.49	2758.61
947.66	2791.38
947.82	2752.47
947.99	2684.89
948.16	2854.87
948.32	2727.89
948.49	2772.95
948.65	2779.09
948.82	2842.58
948.98	2815.96
949.15	2758.61
949.31	2803.67
949.48	2672.60
949.64	2846.68
949.81	2830.29
949.97	2676.70
950.14	2727.89
950.30	2744.28
950.47	2822.10
950.63	2658.26
950.80	2766.81
950.96	2639.83
951.13	2787.29
951.30	2766.81
951.46	2699.22
951.63	2721.75
951.79	2736.09
951.96	2676.70
952.12	2756.57
952.29	2760.66
952.45	2656.22
952.62	2731.99
952.78	2775.00
952.94	2615.26
953.11	2684.89
953.27	2676.70
953.44	2748.37
953.60	2697.17
953.77	2783.19
953.93	2691.03
954.10	2707.41
954.26	2721.75
954.43	2793.43
954.59	2699.22
954.76	2699.22
954.92	2670.55
955.09	2738.13
955.25	2682.84
955.42	2672.60
955.58	2678.74
955.75	2670.55
955.91	2619.35
956.07	2676.70
956.24	2676.70
956.40	2785.24
956.57	2670.55
956.73	2707.41
956.90	2656.22
957.06	2594.78
957.23	2631.64
957.39	2699.22
957.56	2623.45
957.72	2494.43
957.88	2672.60
958.05	2668.50
958.21	2645.98
958.38	2641.88
958.54	2619.35
958.71	2705.37
958.87	2633.69
959.03	2580.44
959.20	2703.32
959.36	2598.87
959.53	2486.23
959.69	2600.92
959.85	2627.54
960.02	2588.63
960.18	2541.53
960.35	2676.70
960.51	2654.17
960.68	2488.28
960.84	2557.91
961.00	2645.98
961.17	2615.26
961.33	2695.13
961.50	2635.74
961.66	2562.01
961.82	2562.01
961.99	2557.91
962.15	2492.38
962.31	2494.43
962.48	2527.19
962.64	2633.69
962.81	2592.73
962.97	2576.34
963.13	2584.54
963.30	2598.87
963.46	2568.15
963.62	2422.75
963.79	2637.78
963.95	2533.34
964.12	2617.30
964.28	2568.15
964.44	2459.61
964.61	2510.81
964.77	2533.34
964.93	2586.58
965.10	2475.99
965.26	2480.09
965.42	2504.67
965.59	2539.48
965.75	2494.43
965.92	2416.60
966.08	2559.96
966.24	2514.91
966.41	2492.38
966.57	2449.37
966.73	2576.34
966.90	2480.09
967.06	2480.09
967.22	2465.75
967.39	2451.42
967.55	2412.51
967.71	2445.27
967.88	2496.47
968.04	2514.91
968.20	2461.66
968.37	2432.99
968.53	2559.96
968.69	2461.66
968.85	2506.71
969.02	2473.95
969.18	2508.76
969.34	2500.57
969.51	2447.32
969.67	2396.12
969.83	2475.99
970.00	2453.47
970.16	2478.04
970.32	2478.04
970.48	2547.67
970.65	2459.61
970.81	2465.75
970.97	2478.04
971.14	2394.08
971.30	2457.56
971.46	2349.02
971.63	2451.42
971.79	2377.69
971.95	2394.08
972.11	2430.94
972.28	2420.70
972.44	2441.18
972.60	2314.20
972.76	2422.75
972.93	2301.92
973.09	2404.32
973.25	2459.61
973.42	2334.68
973.58	2457.56
973.74	2353.12
973.90	2410.46
974.07	2357.21
974.23	2424.80
974.39	2351.07
974.55	2385.88
974.72	2318.30
974.88	2277.34
975.04	2344.92
975.20	2398.17
975.37	2346.97
975.53	2283.49
975.69	2389.98
975.85	2420.70
976.01	2363.36
976.18	2359.26
976.34	2254.81
976.50	2359.26
976.66	2455.51
976.83	2314.20
976.99	2281.44
977.15	2332.64
977.31	2291.68
977.47	2334.68
977.64	2342.88
977.80	2320.35
977.96	2387.93
978.12	2322.40
978.29	2277.34
978.45	2258.91
978.61	2369.50
978.77	2283.49
978.93	2224.09
979.10	2375.64
979.26	2244.57
979.42	2293.72
979.58	2258.91
979.74	2205.66
979.91	2203.61
980.07	2250.72
980.23	2301.92
980.39	2254.81
980.55	2236.38
980.71	2258.91
980.88	2205.66
981.04	2238.43
981.20	2279.39
981.36	2224.09
981.52	2326.49
981.68	2193.37
981.85	2215.90
982.01	2310.11
982.17	2289.63
982.33	2232.29
982.49	2289.63
982.65	2260.96
982.82	2328.54
982.98	2195.42
983.14	2133.98
983.30	2187.23
983.46	2181.09
983.62	2242.53
983.79	2146.27
983.95	2164.70
984.11	2205.66
984.27	2273.25
984.43	2242.53
984.59	2172.89
984.75	2263.01
984.91	2240.48
985.08	2181.09
985.24	2187.23
985.40	2107.36
985.56	2160.61
985.72	2258.91
985.88	2213.85
986.04	2099.17
986.20	2185.18
986.37	2181.09
986.53	2170.85
986.69	2193.37
986.85	2160.61
987.01	2129.89
987.17	2207.71
987.33	2207.71
987.49	2156.51
987.65	2191.33
987.82	2142.18
987.98	2058.21
988.14	2162.66
988.30	2095.07
988.46	2095.07
988.62	2164.70
988.78	2185.18
988.94	2068.45
989.10	2168.80
989.26	2056.16
989.42	2146.27
989.59	2115.55
989.75	2011.11
989.91	2113.50
990.07	2078.69
990.23	2090.98
990.39	2146.27
990.55	2158.56
990.71	2109.41
990.87	2060.26
991.03	2062.30
991.19	2002.91
991.35	2133.98
991.51	2064.35
991.67	2109.41
991.83	2185.18
992.00	2060.26
992.16	2103.26
992.32	2070.50
992.48	2090.98
992.64	2072.54
992.80	2037.73
992.96	2037.73
993.12	2090.98
993.28	2117.60
993.44	1992.67
993.60	2101.22
993.76	2017.25
993.92	2023.39
994.08	1998.82
994.24	2033.63
994.40	2095.07
994.56	2129.89
994.72	2019.30
994.88	2015.20
995.04	1982.43
995.20	2080.74
995.36	2021.35
995.52	2056.16
995.68	2027.49
995.84	1978.34
996.00	2123.74
996.16	2056.16
996.32	2039.78
996.48	2037.73
996.64	1970.15
996.80	2004.96
996.96	1970.15
997.12	2039.78
997.28	1970.15
997.44	1949.67
997.60	2013.15
997.76	1974.24
997.92	2011.11
998.08	2066.40
998.24	2002.91
998.40	2002.91
998.56	2054.11
998.72	1990.63
998.88	2037.73
999.04	1982.43
999.20	2056.16
999.36	1966.05
999.52	1951.71
999.68	2037.73
999.84	1939.43
1000.00	2002.91
1000.16	2011.11
1000.32	1978.34
1000.48	1984.48
1000.64	1976.29
1000.80	1937.38
1000.95	1939.43
1001.11	1927.14
1001.27	2009.06
1001.43	2013.15
1001.59	1925.09
1001.75	1982.43
1001.91	1916.90
1002.07	1890.28
1002.23	1968.10
1002.39	1880.04
1002.55	1912.80
1002.71	1933.28
1002.87	1929.19
1003.03	1929.19
1003.19	1892.32
1003.34	1933.28
1003.50	1933.28
1003.66	1957.86
1003.82	1959.91
1003.98	1947.62
1004.14	1951.71
1004.30	1826.79
1004.46	1865.70
1004.62	1824.74
1004.78	1931.23
1004.94	1929.19
1005.09	1886.18
1005.25	1884.13
1005.41	1943.52
1005.57	1871.84
1005.73	1820.64
1005.89	1972.19
1006.05	1843.17
1006.21	1882.08
1006.37	1882.08
1006.52	1837.03
1006.68	1867.75
1006.84	1945.57
1007.00	1863.65
1007.16	1943.52
1007.32	1880.04
1007.48	1871.84
1007.64	1853.41
1007.79	1853.41
1007.95	1851.36
1008.11	1953.76
1008.27	1832.93
1008.43	1880.04
1008.59	1910.75
1008.75	1914.85
1008.91	1949.67
1009.06	1892.32
1009.22	1886.18
1009.38	1851.36
1009.54	1894.37
1009.70	1912.80
1009.86	1855.46
1010.01	1916.90
1010.17	1839.08
1010.33	1791.97
1010.49	1855.46
1010.65	1906.66
1010.81	1855.46
1010.96	1867.75
1011.12	1877.99
1011.28	1800.16
1011.44	1902.56
1011.60	1810.40
1011.76	1812.45
1011.91	1830.88
1012.07	1775.59
1012.23	1806.31
1012.39	1755.11
1012.55	1841.12
1012.71	1828.84
1012.86	1849.32
1013.02	1834.98
1013.18	1791.97
1013.34	1775.59
1013.50	1867.75
1013.65	1863.65
1013.81	1769.44
1013.97	1773.54
1014.13	1796.07
1014.29	1812.45
1014.44	1841.12
1014.60	1812.45
1014.76	1800.16
1014.92	1769.44
1015.07	1847.27
1015.23	1759.21
1015.39	1824.74
1015.55	1753.06
1015.71	1736.68
1015.86	1804.26
1016.02	1832.93
1016.18	1777.64
1016.34	1810.40
1016.49	1738.73
1016.65	1910.75
1016.81	1896.42
1016.97	1830.88
1017.12	1744.87
1017.28	1761.25
1017.44	1796.07
1017.60	1810.40
1017.75	1763.30
1017.91	1738.73
1018.07	1759.21
1018.23	1708.01
1018.38	1816.55
1018.54	1773.54
1018.70	1740.77
1018.86	1816.55
1019.01	1726.44
1019.17	1734.63
1019.33	1785.83
1019.49	1789.92
1019.64	1748.97
1019.80	1785.83
1019.96	1748.97
1020.12	1783.78
1020.27	1738.73
1020.43	1689.57
1020.59	1834.98
1020.74	1806.31
1020.90	1794.02
1021.06	1826.79
1021.22	1763.30
1021.37	1742.82
1021.53	1722.34
1021.69	1765.35
1021.84	1701.86
1022.00	1755.11
1022.16	1699.81
1022.31	1744.87
1022.47	1748.97
1022.63	1763.30
1022.79	1658.85
1022.94	1667.05
1023.10	1714.15
1023.26	1763.30
1023.41	1722.34
1023.57	1654.76
1023.73	1806.31
1023.88	1728.49
1024.04	1697.77
1024.20	1689.57
1024.35	1740.77
1024.51	1753.06
1024.67	1712.10
1024.82	1691.62
1024.98	1728.49
1025.14	1685.48
1025.29	1753.06
1025.45	1761.25
1025.61	1673.19
1025.76	1767.40
1025.92	1660.90
1026.08	1767.40
1026.23	1775.59
1026.39	1689.57
1026.55	1656.81
1026.70	1722.34
1026.86	1738.73
1027.02	1744.87
1027.17	1740.77
1027.33	1667.05
1027.48	1777.64
1027.64	1695.72
1027.80	1644.52
1027.95	1755.11
1028.11	1699.81
1028.27	1726.44
1028.42	1701.86
1028.58	1673.19
1028.73	1650.66
1028.89	1648.61
1029.05	1744.87
1029.20	1718.25
>>>>>End Processed Spectral Data<<<<<
