SpectraSuite Data File
++++++++++++++++++++++++++++++++++++
Date: Tue Jun 13 12:02:25 CEST 2017
User: INFO_000
Dark Spectrum Present: No
Reference Spectrum Present: No
Number of Sampled Component Spectra: 1
Spectrometers: USB4H00879
Integration Time (usec): 30000 (USB4H00879)
Spectra Averaged: 1 (USB4H00879)
Boxcar Smoothing: 0 (USB4H00879)
Correct for Electrical Dark: No (USB4H00879)
Strobe/Lamp Enabled: No (USB4H00879)
Correct for Detector Non-linearity: No (USB4H00879)
Correct for Stray Light: No (USB4H00879)
Number of Pixels in Processed Spectrum: 3648
>>>>>Begin Processed Spectral Data<<<<<
345.13	1363.95
345.34	1363.95
345.56	1363.95
345.78	1366.00
345.99	1314.80
346.21	1523.69
346.42	1527.78
346.64	1519.59
346.86	1652.71
347.07	1497.07
347.29	1503.21
347.50	1515.50
347.72	1570.79
347.94	1527.78
348.15	1417.19
348.37	1519.59
348.59	1560.55
348.80	1519.59
349.02	1486.83
349.23	1660.90
349.45	1640.42
349.67	1560.55
349.88	1613.80
350.10	1650.66
350.31	1693.67
350.53	1538.02
350.75	1656.81
350.96	1593.32
351.18	1621.99
351.39	1570.79
351.61	1597.42
351.82	1572.84
352.04	1662.95
352.26	1574.89
352.47	1617.90
352.69	1656.81
352.90	1617.90
353.12	1626.09
353.34	1556.46
353.55	1591.27
353.77	1566.70
353.98	1556.46
354.20	1587.18
354.41	1667.05
354.63	1630.18
354.85	1646.57
355.06	1615.85
355.28	1558.50
355.49	1740.77
355.71	1632.23
355.92	1660.90
356.14	1679.33
356.35	1681.38
356.57	1583.08
356.79	1587.18
357.00	1628.14
357.22	1589.22
357.43	1552.36
357.65	1611.75
357.86	1626.09
358.08	1650.66
358.29	1619.94
358.51	1697.77
358.72	1755.11
358.94	1644.52
359.16	1619.94
359.37	1638.38
359.59	1687.53
359.80	1703.91
360.02	1687.53
360.23	1609.70
360.45	1660.90
360.66	1644.52
360.88	1581.03
361.09	1716.20
361.31	1687.53
361.52	1695.72
361.74	1669.09
361.95	1683.43
362.17	1650.66
362.38	1714.15
362.60	1652.71
362.81	1589.22
363.03	1714.15
363.24	1761.25
363.46	1744.87
363.67	1716.20
363.89	1669.09
364.10	1720.29
364.32	1646.57
364.53	1685.48
364.75	1630.18
364.96	1665.00
365.18	1689.57
365.39	1630.18
365.61	1585.13
365.82	1748.97
366.04	1662.95
366.25	1560.55
366.47	1695.72
366.68	1699.81
366.90	1781.73
367.11	1679.33
367.33	1695.72
367.54	1730.53
367.76	1693.67
367.97	1787.88
368.19	1748.97
368.40	1716.20
368.62	1689.57
368.83	1675.24
369.05	1789.92
369.26	1667.05
369.48	1673.19
369.69	1804.26
369.91	1697.77
370.12	1753.06
370.33	1822.69
370.55	1703.91
370.76	1693.67
370.98	1724.39
371.19	1687.53
371.41	1798.12
371.62	1791.97
371.84	1703.91
372.05	1826.79
372.27	1738.73
372.48	1787.88
372.69	1761.25
372.91	1738.73
373.12	1859.56
373.34	1757.16
373.55	1798.12
373.77	1742.82
373.98	1751.01
374.20	1785.83
374.41	1830.88
374.62	1777.64
374.84	1771.49
375.05	1701.86
375.27	1785.83
375.48	1816.55
375.70	1724.39
375.91	1816.55
376.12	1759.21
376.34	1787.88
376.55	1826.79
376.77	1820.64
376.98	1722.34
377.19	1898.47
377.41	1746.92
377.62	1851.36
377.84	1824.74
378.05	1880.04
378.27	1798.12
378.48	1875.94
378.69	1929.19
378.91	1890.28
379.12	1880.04
379.34	1859.56
379.55	1896.42
379.76	1830.88
379.98	1845.22
380.19	1888.23
380.41	1824.74
380.62	1855.46
380.83	1888.23
381.05	1789.92
381.26	1871.84
381.47	1863.65
381.69	1947.62
381.90	1910.75
382.12	1898.47
382.33	1959.91
382.54	1890.28
382.76	1949.67
382.97	1931.23
383.19	1877.99
383.40	1884.13
383.61	1886.18
383.83	1892.32
384.04	1988.58
384.25	1914.85
384.47	1974.24
384.68	1957.86
384.89	1916.90
385.11	1966.05
385.32	2023.39
385.54	2000.87
385.75	1861.60
385.96	2004.96
386.18	1904.61
386.39	2033.63
386.60	1978.34
386.82	1998.82
387.03	1976.29
387.24	2043.87
387.46	1982.43
387.67	2021.35
387.88	2052.06
388.10	2088.93
388.31	2056.16
388.52	2047.97
388.74	2039.78
388.95	2103.26
389.16	2033.63
389.38	2052.06
389.59	2156.51
389.80	2131.94
390.02	2058.21
390.23	2117.60
390.44	2099.17
390.66	2090.98
390.87	2070.50
391.08	2111.46
391.30	2205.66
391.51	2179.04
391.72	2263.01
391.94	2246.62
392.15	2232.29
392.36	2174.94
392.58	2179.04
392.79	2172.89
393.00	2072.54
393.22	2256.86
393.43	2209.76
393.64	2224.09
393.85	2263.01
394.07	2217.95
394.28	2222.05
394.49	2258.91
394.71	2297.82
394.92	2306.01
395.13	2240.48
395.35	2273.25
395.56	2252.77
395.77	2291.68
395.98	2291.68
396.20	2371.55
396.41	2316.25
396.62	2426.84
396.84	2353.12
397.05	2301.92
397.26	2406.36
397.47	2387.93
397.69	2375.64
397.90	2426.84
398.11	2432.99
398.32	2336.73
398.54	2320.35
398.75	2441.18
398.96	2410.46
399.18	2457.56
399.39	2408.41
399.60	2492.38
399.81	2394.08
400.03	2349.02
400.24	2572.25
400.45	2453.47
400.66	2521.05
400.88	2439.13
401.09	2498.52
401.30	2523.10
401.51	2482.14
401.73	2512.86
401.94	2486.23
402.15	2576.34
402.36	2594.78
402.58	2512.86
402.79	2525.15
403.00	2494.43
403.21	2643.93
403.43	2631.64
403.64	2627.54
403.85	2602.97
404.06	2598.87
404.27	2592.73
404.49	2602.97
404.70	2494.43
404.91	2666.46
405.12	2654.17
405.34	2670.55
405.55	2729.94
405.76	2635.74
405.97	2625.50
406.19	2779.09
406.40	2711.51
406.61	2705.37
406.82	2762.71
407.03	2811.86
407.25	2701.27
407.46	2744.28
407.67	2828.24
407.88	2748.37
408.09	2781.14
408.31	2830.29
408.52	2738.13
408.73	2818.00
408.94	2744.28
409.15	2848.72
409.37	2824.15
409.58	2848.72
409.79	2846.68
410.00	2897.88
410.21	2856.92
410.43	2901.97
410.64	2904.02
410.85	2830.29
411.06	2885.59
411.27	2858.96
411.48	2908.12
411.70	2912.21
411.91	2895.83
412.12	2971.60
412.33	3030.99
412.54	2908.12
412.76	2998.23
412.97	3000.27
413.18	2936.79
413.39	3026.90
413.60	3078.10
413.81	2996.18
414.03	2965.46
414.24	3137.49
414.45	3108.82
414.66	3049.43
414.87	3069.91
415.08	3153.87
415.30	3094.48
415.51	2996.18
415.72	3018.71
415.93	3090.38
416.14	3203.02
416.35	3160.02
416.56	3078.10
416.78	3217.36
416.99	3219.41
417.20	3106.77
417.41	3205.07
417.62	3137.49
417.83	3190.74
418.04	3203.02
418.26	3203.02
418.47	3127.25
418.68	3209.17
418.89	3211.22
419.10	3389.39
419.31	3248.08
419.52	3422.16
419.73	3407.82
419.95	3346.38
420.16	3297.23
420.37	3190.74
420.58	3413.96
420.79	3413.96
421.00	3375.05
421.21	3434.44
421.42	3516.36
421.63	3403.72
421.85	3389.39
422.06	3461.07
422.27	3491.79
422.48	3442.64
422.69	3448.78
422.90	3569.61
423.11	3499.98
423.32	3633.10
423.53	3667.91
423.75	3682.25
423.96	3712.97
424.17	3620.81
424.38	3758.02
424.59	3661.77
424.80	3755.97
425.01	3702.73
425.22	3606.47
425.43	3649.48
425.64	3846.09
425.85	3715.02
426.06	3815.37
426.28	3776.45
426.49	3717.06
426.70	3723.21
426.91	3798.98
427.12	4007.87
427.33	3751.88
427.54	3823.56
427.75	3878.85
427.96	4087.75
428.17	3817.41
428.38	3921.86
428.59	3948.48
428.80	4036.55
429.01	3934.15
429.23	3977.16
429.44	4122.56
429.65	4085.70
429.86	4083.65
430.07	4040.64
430.28	4011.97
430.49	4237.25
430.70	4231.10
430.91	4270.01
431.12	4145.09
431.33	4374.46
431.54	4288.45
431.75	4249.54
431.96	4196.29
432.17	4149.18
432.38	4212.67
432.59	4263.87
432.80	4276.16
433.01	4310.97
433.22	4431.80
433.43	4231.10
433.64	4415.42
433.85	4362.17
434.06	4609.98
434.27	4329.41
434.49	4556.73
434.70	4519.87
434.91	4366.27
435.12	4632.51
435.33	4575.16
435.54	4546.49
435.75	4552.63
435.96	4644.79
436.17	4409.28
436.38	4603.83
436.59	4612.03
436.80	4614.07
437.01	4833.21
437.22	4839.35
437.43	4620.22
437.64	4622.27
437.85	4710.33
438.06	4704.18
438.27	4759.48
438.48	4659.13
438.69	4845.49
438.90	4769.72
439.11	4718.52
439.32	4755.38
439.53	4827.06
439.74	4947.89
439.95	4882.36
440.16	4906.93
440.37	4865.97
440.57	4902.84
440.78	5009.33
440.99	4956.08
441.20	5101.49
441.41	4997.04
441.62	4995.00
441.83	4771.77
442.04	5027.76
442.25	5099.44
442.46	4990.90
442.67	5128.11
442.88	5408.69
443.09	5167.03
443.30	5027.76
443.51	5214.13
443.72	5248.94
443.93	5076.91
444.14	5265.33
444.35	5162.93
444.56	5259.18
444.77	5218.22
444.98	5269.42
445.19	5398.45
445.40	5357.49
445.61	5275.57
445.81	5531.56
446.02	5470.12
446.23	5285.81
446.44	5339.05
446.65	5343.15
446.86	5533.61
447.07	5461.93
447.28	5676.97
447.49	5521.32
447.70	5519.28
447.91	5543.85
448.12	5668.78
448.33	5670.83
448.54	5785.51
448.74	5541.80
448.95	5597.10
449.16	5558.19
449.37	5930.92
449.58	5625.77
449.79	5896.10
450.00	5668.78
450.21	5691.31
450.42	5943.21
450.63	5926.82
450.84	5795.75
451.05	5857.19
451.25	5973.92
451.46	5701.54
451.67	5947.30
451.88	5937.06
452.09	5980.07
452.30	5935.01
452.51	5961.64
452.72	6033.32
452.93	6252.45
453.13	6041.51
453.34	6076.32
453.55	6043.56
453.76	6035.36
453.97	6416.29
454.18	6301.60
454.39	6408.09
454.60	6137.76
454.81	6301.60
455.01	6498.20
455.22	6127.52
455.43	6363.04
455.64	6520.73
455.85	6629.27
456.06	6592.41
456.27	6610.84
456.48	6610.84
456.68	6553.50
456.89	6539.16
457.10	6623.13
457.31	6805.40
457.52	6748.06
457.73	6731.67
457.94	6897.56
458.14	6809.50
458.35	7006.10
458.56	7112.60
458.77	6752.15
458.98	7077.78
459.19	6850.46
459.39	7085.97
459.60	7126.93
459.81	7028.63
460.02	7249.81
460.23	7120.79
460.44	7223.19
460.65	7348.11
460.85	7448.46
461.06	7298.96
461.27	7346.06
461.48	7520.14
461.69	7626.64
461.89	7384.98
462.10	7454.61
462.31	7344.02
462.52	7491.47
462.73	7477.13
462.94	7602.06
463.14	7718.79
463.35	7571.34
463.56	7774.09
463.77	7913.35
463.98	7884.68
464.18	7733.13
464.39	7761.80
464.60	8206.21
464.81	7925.64
465.02	7909.26
465.23	8120.20
465.43	8060.80
465.64	8474.49
465.85	8343.42
466.06	8097.67
466.27	8402.82
466.47	8165.25
466.68	8408.96
466.89	8365.95
467.10	8613.76
467.30	8275.84
467.51	8554.37
467.72	8718.20
467.93	8583.04
468.14	8808.31
468.34	8802.17
468.55	8863.61
468.76	8914.81
468.97	8808.31
469.17	9025.40
469.38	8978.30
469.59	9174.90
469.80	9015.16
470.01	9133.94
470.21	9254.77
470.42	9410.42
470.63	9455.47
470.84	9391.98
471.04	9418.61
471.25	9346.93
471.46	9559.92
471.67	9805.67
471.87	9592.69
472.08	9643.88
472.29	9881.45
472.50	9527.15
472.70	9711.47
472.91	10018.66
473.12	10082.15
473.33	10137.45
473.53	10166.12
473.74	10145.64
473.95	10407.78
474.16	10553.18
474.36	10426.21
474.57	10563.42
474.78	10745.69
474.99	10542.94
475.19	10510.18
475.40	10606.43
475.61	10948.44
475.81	10895.19
476.02	11056.98
476.23	10870.62
476.44	11085.65
476.64	11530.06
476.85	11329.36
477.06	11421.52
477.27	11779.92
477.47	11558.74
477.68	11706.19
477.89	11761.48
478.09	11695.95
478.30	11683.66
478.51	11704.14
478.71	11718.48
478.92	12087.11
479.13	12197.70
479.34	12242.76
479.54	12220.23
479.75	12236.61
479.96	12281.67
480.16	12412.74
480.37	12451.65
480.58	12570.43
480.78	12779.32
480.99	12814.14
481.20	12816.19
481.41	12912.44
481.61	12930.87
481.82	13137.72
482.03	13033.27
482.23	13201.21
482.44	13252.41
482.65	13389.62
482.85	13618.99
483.06	13590.32
483.27	13485.87
483.47	13475.63
483.68	13860.65
483.89	13797.17
484.09	13891.37
484.30	14104.36
484.51	14069.55
484.71	14350.12
484.92	14182.18
485.13	14288.68
485.33	14436.13
485.54	14298.92
485.75	14589.73
485.95	14690.08
486.16	14786.33
486.37	14769.95
486.57	14987.04
486.78	15062.81
486.98	14929.69
487.19	15122.20
487.40	14991.13
487.60	15120.15
487.81	15388.44
488.02	15380.25
488.22	15392.53
488.43	15443.73
488.64	15732.50
488.84	15593.23
489.05	15767.31
489.25	15814.41
489.46	15666.96
489.67	16041.74
489.87	16004.88
490.08	16277.26
490.29	16385.80
490.49	16553.73
490.70	16369.41
490.90	16430.85
491.11	16373.51
491.32	16418.57
491.52	16316.17
491.73	16604.93
491.94	16484.10
492.14	16643.84
492.35	17194.75
492.55	17024.76
492.76	17174.27
492.97	17340.15
493.17	17135.35
493.38	17102.59
493.58	17645.30
493.79	17393.40
494.00	17639.15
494.20	17571.57
494.41	17524.47
494.61	17739.51
494.82	17802.99
495.02	17770.22
495.23	17952.49
495.44	17919.73
495.64	18149.10
495.85	18128.62
496.05	18249.45
496.26	18255.59
496.47	18575.08
496.67	18286.31
496.88	18601.70
497.08	18493.16
497.29	18876.13
497.49	18640.61
497.70	18771.68
497.91	18734.82
498.11	19070.68
498.32	19017.44
498.52	19125.98
498.73	19345.11
498.93	19330.78
499.14	19498.71
499.34	19453.66
499.55	19437.27
499.76	19377.88
499.96	19486.42
500.17	19515.09
500.37	19830.48
500.58	19625.68
500.78	19810.00
500.99	19685.08
501.19	19918.54
501.40	19885.78
501.60	20096.72
501.81	19979.98
502.02	20111.05
502.22	19924.69
502.43	20344.52
502.63	20414.15
502.84	20455.11
503.04	20707.01
503.25	20504.26
503.45	20508.36
503.66	20702.92
503.86	20668.10
504.07	20811.46
504.27	20866.75
504.48	21073.60
504.68	21006.02
504.89	21161.66
505.09	20922.05
505.30	20997.82
505.50	21274.30
505.71	21141.18
505.91	21184.19
506.12	21526.20
506.32	21251.77
506.53	21223.10
506.73	21696.18
506.94	21548.73
507.14	21233.34
507.35	21685.94
507.55	21774.00
507.76	21745.33
507.96	21847.73
508.17	21655.22
508.37	21892.79
508.58	22025.90
508.78	21778.10
508.99	22044.34
509.19	21849.78
509.40	22038.19
509.60	22388.39
509.81	22154.93
510.01	22245.04
510.22	22142.64
510.42	22449.83
510.63	22249.13
510.83	22331.05
511.04	22527.66
511.24	22548.14
511.44	22451.88
511.65	22859.43
511.85	22474.41
512.06	22507.18
512.26	22918.82
512.47	22804.13
512.67	22767.27
512.88	22709.93
513.08	22933.15
513.29	23119.52
513.49	23187.10
513.69	22963.87
513.90	23084.70
514.10	23256.73
514.31	23416.47
514.51	23230.11
514.72	23248.54
514.92	23053.98
515.13	23414.43
515.33	23289.50
515.53	23492.25
515.74	23506.59
515.94	23639.70
516.15	23809.68
516.35	23369.37
516.56	23635.61
516.76	23568.02
516.96	23572.12
517.17	23864.98
517.37	23549.59
517.58	23979.67
517.78	23834.26
517.99	24131.22
518.19	24157.84
518.39	24043.15
518.60	24653.45
518.80	24155.79
519.01	24327.82
519.21	24520.33
519.41	24495.75
519.62	24465.03
519.82	24860.29
520.03	24581.77
520.23	24747.65
520.43	24606.34
520.64	24759.94
520.84	24833.67
521.05	24866.44
521.25	25020.03
521.45	25083.52
521.66	25517.69
521.86	25400.96
522.07	25132.67
522.27	25153.15
522.47	25112.19
522.68	25456.25
522.88	25341.57
523.08	25704.06
523.29	25544.31
523.49	25722.49
523.70	25929.33
523.90	25806.45
524.10	25988.72
524.31	25958.00
524.51	25525.88
524.71	26254.96
524.92	26113.65
525.12	26435.18
525.33	26185.33
525.53	26652.27
525.73	26830.44
525.94	26535.53
526.14	26547.82
526.34	26680.94
526.55	26840.68
526.75	26725.99
526.95	26744.42
527.16	26787.43
527.36	26775.14
527.56	27373.15
527.77	27063.91
527.97	27084.39
528.17	27039.33
528.38	26891.88
528.58	27352.67
528.78	27375.20
528.99	27461.21
529.19	27336.29
529.39	27373.15
529.60	27922.01
529.80	27469.40
530.00	27770.46
530.21	28044.88
530.41	28094.04
530.61	27870.81
530.82	28118.61
531.02	27835.99
531.22	28137.04
531.43	28290.64
531.63	28241.49
531.83	28337.74
532.04	28708.43
532.24	28421.71
532.44	29013.57
532.64	28845.64
532.85	28739.15
533.05	29220.42
533.25	29052.48
533.46	28849.74
533.66	29290.05
533.86	29130.31
534.07	29275.71
534.27	29103.68
534.47	29263.43
534.67	29681.21
534.88	29490.75
535.08	29912.63
535.28	29490.75
535.49	29845.05
535.69	30160.44
535.89	30017.08
536.09	29843.00
536.30	30244.40
536.50	29849.14
536.70	30258.74
536.91	30162.48
537.11	30225.97
537.31	30408.24
537.51	30801.45
537.72	30873.13
537.92	30703.15
538.12	30752.30
538.32	30942.76
538.53	31026.73
538.73	30991.91
538.93	30903.85
539.13	30785.07
539.34	31172.13
539.54	31036.97
539.74	31209.00
539.94	31184.42
540.15	30996.01
540.35	31450.66
540.55	31290.91
540.75	31340.07
540.96	31596.06
541.16	31841.82
541.36	31952.41
541.56	31673.88
541.77	32216.60
541.97	32298.52
542.17	32243.22
542.37	32159.25
542.58	32106.01
542.78	32058.90
542.98	31976.98
543.18	32259.60
543.38	32595.47
543.59	32587.28
543.79	32353.81
543.99	32161.30
544.19	32663.05
544.40	32544.27
544.60	33003.02
544.80	32947.72
545.00	32876.04
545.20	32757.26
545.41	33146.37
545.61	32951.82
545.81	33207.81
546.01	33306.12
546.21	32947.72
546.42	33318.40
546.62	33773.05
546.82	32906.76
547.02	33234.44
547.22	33355.27
547.43	33246.72
547.63	33271.30
547.83	33512.96
548.03	33316.36
548.23	33609.22
548.44	33398.27
548.64	33670.65
548.84	33842.68
549.04	33771.00
549.24	33986.04
549.45	34031.10
549.65	33805.82
549.85	33598.98
550.05	34055.67
550.25	34174.45
550.45	34237.94
550.66	34389.49
550.86	33969.66
551.06	34080.25
551.26	34039.29
551.46	34481.65
551.66	34360.82
551.87	34438.64
552.07	34330.10
552.27	34502.13
552.47	34545.14
552.67	34760.17
552.87	34475.51
553.07	34557.42
553.28	34680.30
553.48	34921.96
553.68	34514.42
553.88	34653.68
554.08	34700.78
554.28	34932.20
554.48	34604.53
554.69	34956.78
554.89	34891.24
555.09	34891.24
555.29	35186.15
555.49	34883.05
555.69	35100.14
555.89	34702.83
556.10	35028.46
556.30	34915.82
556.50	35395.04
556.70	34774.51
556.90	35317.22
557.10	35536.35
557.30	35218.92
557.50	35501.54
557.70	35460.58
557.91	35927.52
558.11	35196.39
558.31	35380.71
558.51	35345.89
558.71	35554.79
558.91	35255.78
559.11	35141.10
559.31	35464.67
559.51	35726.81
559.72	35671.52
559.92	36068.83
560.12	35554.79
560.32	35796.45
560.52	35536.35
560.72	35843.55
560.92	35913.18
561.12	36017.63
561.32	35907.04
561.52	35888.60
561.72	36148.70
561.93	35493.35
562.13	35812.83
562.33	35372.52
562.53	36511.19
562.73	35943.90
562.93	36265.43
563.13	36089.31
563.33	35704.29
563.53	36259.29
563.73	35898.84
563.93	35980.76
564.13	36378.07
564.33	36398.55
564.53	36050.39
564.74	36492.76
564.94	36079.07
565.14	36240.86
565.34	36568.53
565.54	36318.68
565.74	36500.95
565.94	36853.20
566.14	36789.71
566.34	36400.60
566.54	36810.19
566.74	36120.02
566.94	36443.60
567.14	36533.71
567.34	36445.65
567.54	36699.60
567.74	36529.62
567.94	36543.95
568.14	36527.57
568.34	37055.95
568.54	36707.79
568.74	36580.82
568.94	36728.27
569.14	36849.10
569.34	36746.70
569.54	37328.33
569.75	36799.95
569.95	36705.74
570.15	37322.18
570.35	36971.98
570.55	36834.77
570.75	36740.56
570.95	37301.70
571.15	37170.63
571.35	37330.37
571.55	37408.20
571.75	37354.95
571.95	37338.57
572.15	36998.60
572.35	37412.29
572.55	37019.08
572.75	37275.08
572.95	37545.41
573.15	37313.99
573.35	37264.84
573.55	37320.13
573.75	37305.80
573.95	37361.09
574.15	37262.79
574.35	37658.05
574.55	37625.28
574.75	37463.49
574.95	37772.74
575.15	37565.89
575.34	37793.22
575.54	37664.19
575.74	37795.26
575.94	37662.15
576.14	37823.93
576.34	38184.38
576.54	38020.54
576.74	37760.45
576.94	37787.07
577.14	38131.13
577.34	38186.43
577.54	37770.69
577.74	38237.62
577.94	38417.85
578.14	37916.09
578.34	38389.17
578.54	37821.89
578.74	38155.71
578.94	38569.40
579.14	38241.72
579.34	38411.70
579.54	38260.15
579.74	38563.25
579.94	38751.66
580.13	38669.75
580.33	38376.89
580.53	38774.19
580.73	38768.05
580.93	38307.26
581.13	38718.90
581.33	38913.45
581.53	38888.88
581.73	38874.54
581.93	38817.20
582.13	38694.32
582.33	39062.96
582.53	38985.13
582.73	39523.75
582.92	38876.59
583.12	39277.99
583.32	39050.67
583.52	38796.72
583.72	39249.32
583.92	39224.75
584.12	39343.53
584.32	39591.33
584.52	39439.78
584.72	39386.54
584.92	39368.10
585.11	39617.96
585.31	38968.75
585.51	39671.20
585.71	39462.31
585.91	39900.58
586.11	39261.61
586.31	39142.83
586.51	39605.67
586.71	39396.77
586.91	39916.96
587.10	39886.24
587.30	39617.96
587.50	39816.61
587.70	40152.48
587.90	40039.84
588.10	40519.06
588.30	39558.56
588.50	40000.93
588.69	39841.18
588.89	40007.07
589.09	40138.14
589.29	40111.52
589.49	40277.40
589.69	39845.28
589.89	40183.19
590.08	39902.62
590.28	40076.70
590.48	40156.57
590.68	39970.21
590.88	40152.48
591.08	40412.57
591.28	39935.39
591.47	40525.21
591.67	40308.12
591.87	40406.42
592.07	40457.62
592.27	40576.40
592.47	40248.73
592.67	40535.45
592.86	40390.04
593.06	40539.54
593.26	40510.87
593.46	40363.42
593.66	40629.65
593.86	40387.99
594.05	40461.72
594.25	40535.45
594.45	40306.07
594.65	40756.63
594.85	40680.85
595.05	40643.99
595.24	40922.51
595.44	40588.69
595.64	40912.27
595.84	40609.17
596.04	41014.67
596.23	40949.14
596.43	40742.29
596.63	40639.89
596.83	41139.60
597.03	40945.04
597.22	41418.12
597.42	41029.01
597.62	41375.11
597.82	41289.10
598.02	41303.43
598.21	41315.72
598.41	40924.56
598.61	41354.63
598.81	41424.26
599.01	41590.15
599.20	41362.82
599.40	41342.35
599.60	41657.73
599.80	41151.88
600.00	41934.21
600.19	41934.21
600.39	41463.18
600.59	41418.12
600.79	41618.82
600.98	41790.85
601.18	41620.87
601.38	41694.60
601.58	42087.81
601.78	41782.66
601.97	41354.63
602.17	41954.69
602.37	41766.27
602.57	41524.61
602.76	42351.99
602.96	41563.53
603.16	42382.71
603.36	41917.82
603.55	42450.30
603.75	42108.29
603.95	42259.84
604.15	41880.96
604.34	42114.43
604.54	42403.19
604.74	42270.08
604.94	42302.84
605.13	42349.95
605.33	42558.84
605.53	42075.52
605.73	42458.49
605.92	42460.54
606.12	42581.37
606.32	42573.17
606.52	42380.67
606.71	42657.14
606.91	42935.66
607.11	42395.00
607.30	42988.91
607.50	42427.77
607.70	42734.96
607.90	42542.45
608.09	42640.76
608.29	42567.03
608.49	42818.93
608.68	42937.71
608.88	43359.59
609.08	43353.45
609.28	42952.05
609.47	42534.26
609.67	42947.95
609.87	42925.42
610.06	42868.08
610.26	42962.29
610.46	42831.22
610.66	42904.95
610.85	43019.63
611.05	42646.90
611.25	43124.08
611.44	42634.61
611.64	43423.08
611.84	42720.63
612.03	42741.11
612.23	43058.54
612.43	42798.45
612.62	43154.80
612.82	43021.68
613.02	43048.30
613.21	43220.33
613.41	42823.03
613.61	42845.55
613.80	42837.36
614.00	42812.79
614.20	42898.80
614.39	42868.08
614.59	43236.72
614.79	42982.77
614.98	42878.32
615.18	43355.50
615.38	42964.34
615.57	42943.86
615.77	43181.42
615.97	43320.68
616.16	42878.32
616.36	42599.80
616.56	43083.12
616.75	43117.93
616.95	42804.59
617.15	42894.71
617.34	43144.56
617.54	43158.89
617.74	43052.40
617.93	43138.41
618.13	42671.48
618.32	43296.11
618.52	42741.11
618.72	43156.85
618.91	43083.12
619.11	42814.83
619.31	42825.07
619.50	42980.72
619.70	42904.95
619.90	42968.43
620.09	42810.74
620.29	43074.93
620.48	42716.53
620.68	43197.80
620.88	42653.05
621.07	43103.60
621.27	42616.18
621.46	42657.14
621.66	42814.83
621.86	42585.46
622.05	42726.77
622.25	43150.70
622.44	42618.23
622.64	42573.17
622.84	42667.38
623.03	42382.71
623.23	42726.77
623.42	42825.07
623.62	43070.83
623.82	42868.08
624.01	42499.45
624.21	42722.68
624.40	42429.82
624.60	43009.39
624.80	42466.68
624.99	42710.39
625.19	42356.09
625.38	42663.28
625.58	42593.65
625.77	42294.65
625.97	42409.34
626.17	42497.40
626.36	42485.11
626.56	42577.27
626.75	42311.03
626.95	42524.02
627.14	42560.89
627.34	42814.83
627.54	42581.37
627.73	42460.54
627.93	42792.31
628.12	42106.24
628.32	42673.52
628.51	42759.54
628.71	42812.79
628.90	42556.79
629.10	42497.40
629.30	42245.50
629.49	42749.30
629.69	42294.65
629.88	42329.47
630.08	42694.00
630.27	42409.34
630.47	42519.93
630.66	42575.22
630.86	42462.58
631.05	42233.21
631.25	42366.33
631.44	42485.11
631.64	42386.81
631.84	42364.28
632.03	42505.59
632.23	42618.23
632.42	42499.45
632.62	42683.76
632.81	42163.58
633.01	42362.23
633.20	42378.62
633.40	42358.14
633.59	42388.86
633.79	42046.85
633.98	42859.89
634.18	42636.66
634.37	42096.00
634.57	42497.40
634.76	42503.54
634.96	41975.17
635.15	42280.31
635.35	42274.17
635.54	42042.75
635.74	42403.19
635.93	41987.46
636.13	42337.66
636.32	42333.56
636.52	42515.83
636.71	42286.46
636.91	41991.55
637.10	42014.08
637.30	42417.53
637.49	42239.36
637.69	42388.86
637.88	42276.22
638.08	42182.01
638.27	42472.82
638.46	42442.10
638.66	42007.94
638.85	42040.70
639.05	42337.66
639.24	42427.77
639.44	42370.43
639.63	42329.47
639.83	42487.16
640.02	42315.13
640.22	41837.95
640.41	42638.71
640.61	41614.72
640.80	42175.87
640.99	42087.81
641.19	42667.38
641.38	42241.40
641.58	42524.02
641.77	42532.22
641.97	41899.39
642.16	42108.29
642.36	42206.59
642.55	42653.05
642.74	42284.41
642.94	42114.43
643.13	42478.97
643.33	42489.21
643.52	42214.78
643.72	42642.81
643.91	42126.72
644.10	42433.91
644.30	42493.30
644.49	42448.25
644.69	42591.61
644.88	42524.02
645.08	42007.94
645.27	42188.16
645.46	42155.39
645.66	42323.32
645.85	42323.32
646.05	42403.19
646.24	42270.08
646.43	42331.51
646.63	42483.06
646.82	42894.71
647.02	42325.37
647.21	42239.36
647.40	42257.79
647.60	42452.34
647.79	42349.95
647.99	42325.37
648.18	42155.39
648.37	42804.59
648.57	42411.38
648.76	42675.57
648.96	42511.74
649.15	42302.84
649.34	42691.96
649.54	42251.64
649.73	42151.29
649.92	42265.98
650.12	42139.00
650.31	42448.25
650.51	42163.58
650.70	42372.47
650.89	42163.58
651.09	42866.03
651.28	42452.34
651.47	42413.43
651.67	42440.06
651.86	42841.46
652.06	41917.82
652.25	42392.95
652.44	42481.02
652.64	42315.13
652.83	42347.90
653.02	42415.48
653.22	42327.42
653.41	42501.50
653.60	42282.36
653.80	41964.93
653.99	42110.33
654.18	42218.88
654.38	42427.77
654.57	42425.72
654.76	41973.12
654.96	42124.67
655.15	42411.38
655.34	42196.35
655.54	41885.06
655.73	42194.30
655.92	41997.70
656.12	42001.79
656.31	42276.22
656.50	42042.75
656.70	42319.23
656.89	42091.90
657.08	42347.90
657.28	42132.86
657.47	42102.14
657.66	42308.99
657.86	42538.36
658.05	42296.70
658.24	42276.22
658.43	42167.68
658.63	42601.85
658.82	42210.68
659.01	42657.14
659.21	42096.00
659.40	42442.10
659.59	42001.79
659.79	42489.21
659.98	42605.94
660.17	42483.06
660.36	42413.43
660.56	42163.58
660.75	42587.51
660.94	42374.52
661.14	42108.29
661.33	41887.10
661.52	41678.21
661.71	42368.38
661.91	41932.16
662.10	41780.61
662.29	42386.81
662.49	41921.92
662.68	41977.22
662.87	42124.67
663.06	42460.54
663.26	41923.97
663.45	42020.22
663.64	42433.91
663.83	42505.59
664.03	42014.08
664.22	42124.67
664.41	41981.31
664.60	41858.43
664.80	42145.15
664.99	41620.87
665.18	42132.86
665.37	41964.93
665.57	41964.93
665.76	42001.79
665.95	42075.52
666.14	41641.35
666.34	41930.11
666.53	41725.32
666.72	41811.33
666.91	41778.56
667.11	41966.98
667.30	41665.92
667.49	41811.33
667.68	41784.71
667.87	41653.64
668.07	41813.38
668.26	42104.19
668.45	41710.98
668.64	41618.82
668.84	41721.22
669.03	41803.14
669.22	41438.60
669.41	41899.39
669.60	41977.22
669.80	41610.63
669.99	42055.04
670.18	41442.70
670.37	41659.78
670.57	41829.76
670.76	41581.96
670.95	41508.23
671.14	41721.22
671.33	41477.51
671.53	41612.68
671.72	41594.25
671.91	41833.86
672.10	41385.35
672.29	41575.81
672.48	41749.89
672.68	41938.30
672.87	41477.51
673.06	41409.93
673.25	41448.84
673.44	41428.36
673.64	41250.19
673.83	41211.28
674.02	41555.33
674.21	41084.30
674.40	41803.14
674.59	41090.44
674.79	41004.43
674.98	41074.06
675.17	41559.43
675.36	41000.33
675.55	41616.77
675.74	41117.07
675.94	40883.60
676.13	41006.48
676.32	41278.86
676.51	40902.03
676.70	41487.75
676.89	40881.55
677.08	41315.72
677.28	40576.40
677.47	41108.88
677.66	41590.15
677.85	40928.66
678.04	41215.37
678.23	41598.34
678.42	41012.62
678.62	40940.94
678.81	41223.56
679.00	40979.85
679.19	41018.77
679.38	40990.09
679.57	40799.63
679.76	40996.24
679.96	41344.39
680.15	40992.14
680.34	40656.28
680.53	40703.38
680.72	41129.36
680.91	40908.18
681.10	40177.05
681.29	40668.56
681.48	40678.80
681.68	40494.49
681.87	40607.12
682.06	40625.56
682.25	40568.21
682.44	40576.40
682.63	40609.17
682.82	40344.98
683.01	40486.29
683.20	40316.31
683.39	40162.72
683.59	40222.11
683.78	40187.29
683.97	40203.67
684.16	40258.97
684.35	39937.44
684.54	40271.26
684.73	39880.10
684.92	40377.75
685.11	39761.31
685.30	40453.53
685.49	40150.43
685.69	40160.67
685.88	40490.39
686.07	40052.12
686.26	40015.26
686.45	39962.01
686.64	39949.73
686.83	40154.52
687.02	40115.61
687.21	40250.78
687.40	40115.61
687.59	39695.78
687.78	39990.69
687.97	39876.00
688.16	39521.70
688.35	40015.26
688.54	39847.33
688.74	39599.52
688.93	39808.42
689.12	39773.60
689.31	39564.71
689.50	39867.81
689.69	39310.76
689.88	39194.03
690.07	39314.86
690.26	39529.89
690.45	39773.60
690.64	39546.28
690.83	39284.14
691.02	39259.56
691.21	39407.01
691.40	39419.30
691.59	39681.44
691.78	39372.20
691.97	39806.37
692.16	39413.16
692.35	39259.56
692.54	39327.14
692.73	38981.04
692.92	39024.04
693.11	39427.49
693.30	39103.92
693.49	39509.41
693.68	38956.46
693.87	39310.76
694.06	38800.82
694.25	38991.28
694.44	39019.95
694.63	38987.18
694.82	38946.22
695.01	38909.36
695.20	38903.21
695.39	38993.32
695.58	38839.73
695.77	38806.96
695.96	38706.61
696.15	38495.67
696.34	38512.05
696.53	38581.68
696.72	39112.11
696.91	38305.21
697.10	38794.67
697.29	38434.23
697.48	38544.82
697.67	38387.13
697.86	38516.15
698.05	38231.48
698.24	38686.13
698.43	38219.19
698.62	38340.02
698.81	38151.61
699.00	38417.85
699.19	37696.96
699.38	38170.04
699.57	38020.54
699.76	38254.01
699.95	37799.36
700.14	37871.04
700.32	38090.17
700.51	37893.57
700.70	38299.06
700.89	37977.53
701.08	37881.28
701.27	37662.15
701.46	38196.67
701.65	37586.37
701.84	37844.41
702.03	37977.53
702.22	37721.54
702.41	37696.96
702.60	37551.56
702.79	37580.23
702.98	37354.95
703.17	37520.84
703.35	37729.73
703.54	37457.35
703.73	37719.49
703.92	37201.35
704.11	37739.97
704.30	37168.58
704.49	37127.63
704.68	37385.67
704.87	37238.22
705.06	37326.28
705.25	37012.94
705.43	36892.11
705.62	36998.60
705.81	37029.32
706.00	36750.80
706.19	37375.43
706.38	36914.64
706.57	36842.96
706.76	37078.47
706.95	37117.39
707.14	36974.03
707.32	36845.01
707.51	36701.65
707.70	37148.11
707.89	36740.56
708.08	36971.98
708.27	36865.49
708.46	37088.71
708.65	36826.57
708.84	36679.12
709.02	36642.26
709.21	36838.86
709.40	36863.44
709.59	36744.66
709.78	36509.14
709.97	36474.32
710.16	36638.16
710.34	36095.45
710.53	36423.12
710.72	35831.26
710.91	36414.93
711.10	36240.86
711.29	36298.20
711.48	36224.47
711.66	36146.65
711.85	36113.88
712.04	36226.52
712.23	36197.85
712.42	35950.04
712.61	36093.40
712.80	36068.83
712.98	36044.25
713.17	35784.16
713.36	35984.86
713.55	35886.56
713.74	35587.55
713.93	35759.58
714.11	35327.46
714.30	35956.19
714.49	35730.91
714.68	35761.63
714.87	36097.50
715.06	35808.73
715.24	35681.76
715.43	35519.97
715.62	35429.86
715.81	35745.25
716.00	35442.15
716.18	35257.83
716.37	34878.96
716.56	34876.91
716.75	35395.04
716.94	35151.34
717.12	35116.52
717.31	35253.73
717.50	34928.11
717.69	35141.10
717.88	34913.77
718.06	35059.18
718.25	35319.27
718.44	34754.03
718.63	34891.24
718.82	34346.48
719.00	34489.84
719.19	34616.82
719.38	34600.43
719.57	34487.79
719.76	34412.02
719.94	34895.34
720.13	34440.69
720.32	34117.11
720.51	34516.47
720.69	34506.23
720.88	34309.62
721.07	34276.85
721.26	33922.55
721.44	33934.84
721.63	34002.43
721.82	33859.07
722.01	33633.79
722.20	33900.03
722.38	34022.90
722.57	33545.73
722.76	33916.41
722.95	33779.20
723.13	33445.38
723.32	33457.67
723.51	33635.84
723.70	33330.69
723.88	33525.25
724.07	33449.47
724.26	33654.27
724.44	33412.61
724.63	33541.63
724.82	33721.85
725.01	32787.98
725.19	33154.57
725.38	33361.41
725.57	33392.13
725.76	33015.30
725.94	33052.17
726.13	33127.94
726.32	33031.69
726.51	32921.10
726.69	32982.54
726.88	33025.54
727.07	32841.23
727.25	33043.98
727.44	33037.83
727.63	32837.13
727.82	33148.42
728.00	32898.57
728.19	32773.64
728.38	32880.14
728.56	32624.14
728.75	33031.69
728.94	32396.82
729.12	32890.38
729.31	32572.94
729.50	32601.61
729.69	32763.40
729.87	32802.32
730.06	32486.93
730.25	32454.16
730.43	32785.93
730.62	32335.38
730.81	32712.20
730.99	32792.08
731.18	32474.64
731.37	32585.23
731.55	32601.61
731.74	32898.57
731.93	32593.42
732.11	32417.30
732.30	32579.09
732.49	32517.65
732.67	32706.06
732.86	32241.17
733.05	32300.56
733.23	32351.76
733.42	32253.46
733.61	32474.64
733.79	32175.64
733.98	32351.76
734.17	32278.04
734.35	32202.26
734.54	32144.92
734.73	31966.74
734.91	32134.68
735.10	31909.40
735.29	31985.18
735.47	31680.03
735.66	31997.46
735.84	31864.35
736.03	31993.37
736.22	32130.58
736.40	31931.93
736.59	31974.94
736.78	31813.15
736.96	31882.78
737.15	31720.99
737.33	31663.64
737.52	31938.07
737.71	31784.48
737.89	31534.62
738.08	31321.63
738.27	31407.65
738.45	31755.80
738.64	31518.24
738.82	31264.29
739.01	31444.51
739.20	31360.55
739.38	31272.48
739.57	31561.25
739.75	31743.52
739.94	31403.55
740.13	31309.35
740.31	31258.15
740.50	31430.18
740.68	31381.03
740.87	31446.56
741.06	31190.56
741.24	30989.86
741.43	31014.44
741.61	31172.13
741.80	30971.43
741.99	30907.94
742.17	31006.25
742.36	30979.62
742.54	30875.18
742.73	30578.22
742.91	30948.90
743.10	30860.84
743.29	30801.45
743.47	30879.27
743.66	30946.86
743.84	30940.71
744.03	30615.08
744.21	30613.04
744.40	31036.97
744.59	30539.31
744.77	30682.67
744.96	30869.03
745.14	30852.65
745.33	30584.37
745.51	30492.21
745.70	30582.32
745.88	30301.75
746.07	30314.03
746.26	30240.31
746.44	30422.58
746.63	30742.06
746.81	30385.71
747.00	30260.79
747.18	30404.14
747.37	30174.77
747.55	30350.90
747.74	30529.07
747.92	30330.42
748.11	30563.89
748.29	30178.87
748.48	30123.57
748.66	30111.28
748.85	30457.39
749.03	30258.74
749.22	30043.70
749.41	30092.85
749.59	30201.40
749.78	30086.71
749.96	29906.49
750.15	29894.20
750.33	30160.44
750.52	29914.68
750.70	29627.96
750.89	29863.48
751.07	29607.48
751.26	29679.16
751.44	29388.35
751.63	29840.95
751.81	29541.95
752.00	29449.79
752.18	29492.80
752.37	29486.65
752.55	29533.76
752.74	29394.50
752.92	29113.92
753.10	29378.11
753.29	29380.16
753.47	29408.83
753.66	29118.02
753.84	29646.40
754.03	29171.27
754.21	29455.93
754.40	29261.38
754.58	29177.41
754.77	29052.48
754.95	29197.89
755.14	29302.34
755.32	29175.36
755.51	29113.92
755.69	29009.48
755.88	29089.35
756.06	29007.43
756.24	29011.53
756.43	28821.06
756.61	29046.34
756.80	28880.46
756.98	28814.92
757.17	29072.96
757.35	29038.15
757.54	28685.90
757.72	28868.17
757.90	28716.62
758.09	28814.92
758.27	28751.43
758.46	28337.74
758.64	28749.39
758.83	28730.95
759.01	28628.56
759.19	28665.42
759.38	28808.78
759.56	28579.40
759.75	28536.40
759.93	28532.30
760.12	28413.52
760.30	28495.44
760.48	28409.42
760.67	28218.96
760.85	28245.58
761.04	28249.68
761.22	28667.47
761.40	28202.58
761.59	28022.36
761.77	27942.49
761.96	28161.62
762.14	27995.73
762.32	28110.42
762.51	27999.83
762.69	28116.56
762.88	27655.77
763.06	27958.87
763.24	27897.43
763.43	28225.11
763.61	27725.40
763.80	27823.70
763.98	27717.21
764.16	27897.43
764.35	27749.98
764.53	27461.21
764.72	27696.73
764.90	27401.82
765.08	27663.96
765.27	27604.57
765.45	27362.91
765.63	27457.12
765.82	27485.79
766.00	27354.72
766.18	27276.90
766.37	27481.69
766.55	27358.81
766.74	27459.16
766.92	27393.63
767.10	27037.28
767.29	27506.27
767.47	26990.18
767.65	27166.31
767.84	27229.79
768.02	27086.43
768.20	26777.19
768.39	26932.84
768.57	27063.91
768.75	26941.03
768.94	27197.02
769.12	27280.99
769.30	26742.38
769.49	26869.35
769.67	26730.09
769.85	26773.10
770.04	26709.61
770.22	26607.21
770.40	26938.98
770.59	26621.55
770.77	26777.19
770.95	26859.11
771.14	26435.18
771.32	26187.38
771.50	26343.02
771.69	26424.94
771.87	26711.66
772.05	26412.65
772.24	26625.64
772.42	26504.81
772.60	26127.99
772.78	26297.97
772.97	26259.06
773.15	26355.31
773.33	26230.38
773.52	26252.91
773.70	26191.47
773.88	26388.08
774.07	26009.20
774.25	26228.34
774.43	26164.85
774.61	26467.95
774.80	26291.82
774.98	26252.91
775.16	25865.85
775.34	26431.08
775.53	25962.10
775.71	26205.81
775.89	26232.43
776.08	26111.60
776.26	26316.40
776.44	25849.46
776.62	26148.46
776.81	25732.73
776.99	26285.68
777.17	26300.01
777.35	26037.87
777.54	26242.67
777.72	26087.03
777.90	26113.65
778.08	26445.42
778.27	26072.69
778.45	26130.03
778.63	26470.00
778.81	26189.42
779.00	26701.42
779.18	26244.72
779.36	26803.82
779.54	26207.86
779.73	26191.47
779.91	26322.54
780.09	26734.18
780.27	26613.35
780.46	26257.01
780.64	26828.39
780.82	26474.09
781.00	26402.41
781.19	26523.24
781.37	26809.96
781.55	26539.63
781.73	26660.46
781.91	26400.37
782.10	26463.85
782.28	27041.38
782.46	26510.96
782.64	26719.85
782.82	26330.73
783.01	26826.34
783.19	26474.09
783.37	26685.03
783.55	26515.05
783.74	27020.90
783.92	26216.05
784.10	26619.50
784.28	26619.50
784.46	26349.17
784.64	26777.19
784.83	26453.61
785.01	26695.27
785.19	26592.87
785.37	26480.24
785.55	26568.30
785.74	26574.44
785.92	26420.84
786.10	26449.52
786.28	26592.87
786.46	26371.69
786.64	26216.05
786.83	26441.32
787.01	26107.51
787.19	26334.83
787.37	26117.75
787.55	26402.41
787.74	26105.46
787.92	26252.91
788.10	26420.84
788.28	26041.97
788.46	26584.68
788.64	25622.14
788.82	26316.40
789.01	25884.28
789.19	25919.09
789.37	25882.23
789.55	26035.83
789.73	25722.49
789.91	26037.87
790.09	25970.29
790.28	25630.33
790.46	25552.51
790.64	25818.74
790.82	25656.95
791.00	26011.25
791.18	25259.65
791.36	25570.94
791.55	25566.84
791.73	25407.10
791.91	25296.51
792.09	25454.20
792.27	25476.73
792.45	25212.54
792.63	24888.96
792.81	25237.12
793.00	25360.00
793.18	24944.26
793.36	25175.68
793.54	24839.81
793.72	24854.15
793.90	24532.62
794.08	24592.01
794.26	24864.39
794.44	24446.60
794.62	24331.92
794.81	24614.54
794.99	24434.32
795.17	24647.30
795.35	24528.52
795.53	24307.34
795.71	24460.94
795.89	24252.05
796.07	24215.18
796.25	24065.68
796.43	24209.04
796.61	23977.62
796.80	24049.30
796.98	24059.54
797.16	23916.18
797.34	24108.69
797.52	23785.11
797.70	23950.99
797.88	23821.97
798.06	23668.37
798.24	23961.23
798.42	23803.54
798.60	23565.98
798.78	23518.87
798.96	23484.06
799.14	23301.79
799.32	23369.37
799.51	23414.43
799.69	22986.40
799.87	23142.05
800.05	22988.45
800.23	22881.95
800.41	23107.23
800.59	22924.96
800.77	22834.85
800.95	22687.40
801.13	22767.27
801.31	22759.08
801.49	22832.80
801.67	22466.22
801.85	22797.99
802.03	22693.54
802.21	22701.73
802.39	22353.58
802.57	22605.48
802.75	22281.90
802.93	22357.67
803.11	22312.62
803.29	22113.97
803.47	21872.31
803.65	22036.14
803.83	22402.73
804.01	22066.86
804.19	22009.52
804.37	22009.52
804.55	21790.39
804.73	21900.98
804.91	22003.38
805.09	21743.28
805.27	21759.67
805.45	21638.84
805.63	21712.56
805.81	21792.44
805.99	21919.41
806.17	21509.82
806.35	21565.11
806.53	21436.09
806.71	21583.54
806.89	21589.69
807.07	21589.69
807.25	21388.99
807.43	21298.88
807.61	21096.13
807.79	21409.47
807.97	21116.61
808.15	20965.06
808.33	20836.03
808.51	20889.28
808.69	21124.80
808.87	20836.03
809.05	20821.70
809.23	21069.50
809.41	20782.79
809.59	20717.25
809.77	20848.32
809.95	20461.26
810.13	20672.20
810.31	20471.50
810.49	20793.03
810.67	20709.06
810.84	20274.89
811.02	20358.86
811.20	20342.47
811.38	20305.61
811.56	20018.89
811.74	20172.49
811.92	20162.25
812.10	20057.81
812.28	20223.69
812.46	20086.48
812.64	19969.74
812.82	19879.63
813.00	19930.83
813.18	19953.36
813.36	19803.86
813.53	19676.88
813.71	19812.05
813.89	19629.78
814.07	19783.38
814.25	19566.29
814.43	19633.88
814.61	19433.18
814.79	19820.24
814.97	19531.48
815.15	19515.09
815.33	19568.34
815.50	19248.86
815.68	19629.78
815.86	19642.07
816.04	19324.63
816.22	19357.40
816.40	19144.41
816.58	19216.09
816.76	19095.26
816.94	19222.23
817.11	18863.84
817.29	19093.21
817.47	18765.54
817.65	18902.75
817.83	19074.78
818.01	18882.27
818.19	18605.80
818.37	18964.19
818.54	18681.57
818.72	18904.80
818.90	18736.87
819.08	18644.71
819.26	18607.84
819.44	18681.57
819.62	18714.34
819.80	18472.68
819.97	18503.40
820.15	18427.62
820.33	18370.28
820.51	18677.48
820.69	18278.12
820.87	18460.39
821.05	18437.86
821.22	18249.45
821.40	18251.50
821.58	18284.26
821.76	18357.99
821.94	18341.61
822.12	18243.31
822.29	18142.96
822.47	18069.23
822.65	18327.27
822.83	18194.15
823.01	18149.10
823.19	18192.11
823.36	17950.45
823.54	17907.44
823.72	18073.32
823.90	18013.93
824.08	17755.89
824.25	17837.81
824.43	17805.04
824.61	17805.04
824.79	17676.02
824.97	17753.84
825.15	17723.12
825.32	17989.36
825.50	17510.13
825.68	17379.06
825.86	17741.55
826.04	17772.27
826.21	17657.59
826.39	17542.90
826.57	17567.48
826.75	17506.04
826.93	17276.66
827.10	17303.29
827.28	17254.14
827.46	17440.50
827.64	17299.19
827.81	17395.45
827.99	17194.75
828.17	17422.07
828.35	17073.92
828.53	17059.58
828.70	17159.93
828.88	17264.38
829.06	16828.16
829.24	17194.75
829.41	16846.59
829.59	17153.79
829.77	16883.45
829.95	16885.50
830.12	16807.68
830.30	16905.98
830.48	17137.40
830.66	16948.99
830.84	16805.63
831.01	16557.83
831.19	16819.97
831.37	16699.14
831.55	16770.82
831.72	16797.44
831.90	16631.55
832.08	16596.74
832.25	16568.07
832.43	16224.01
832.61	16533.25
832.79	16449.28
832.96	16494.34
833.14	16281.35
833.32	16320.26
833.50	16627.46
833.67	16598.79
833.85	16209.67
834.03	16070.41
834.20	16148.23
834.38	16379.65
834.56	16404.23
834.74	16213.77
834.91	16353.03
835.09	16152.33
835.27	15834.89
835.44	16158.47
835.62	15816.46
835.80	16154.38
835.98	16060.17
836.15	15783.70
836.33	15820.56
836.51	16199.43
836.68	15697.68
836.86	15816.46
837.04	15955.72
837.21	15933.20
837.39	15896.33
837.57	15773.46
837.75	15900.43
837.92	15722.26
838.10	15617.81
838.28	15662.86
838.45	15802.13
838.63	15335.19
838.81	15621.91
838.98	15793.94
839.16	15458.07
839.34	15558.42
839.51	15525.65
839.69	15488.79
839.87	15539.99
840.04	15511.32
840.22	15449.88
840.40	15245.08
840.57	15460.12
840.75	15408.92
840.93	15410.96
841.10	15253.27
841.28	15601.43
841.46	15324.95
841.63	15218.46
841.81	15279.89
841.98	15087.39
842.16	15079.19
842.34	15294.23
842.51	15095.58
842.69	15292.18
842.87	15075.10
843.04	15126.30
843.22	15023.90
843.40	15009.56
843.57	14831.39
843.75	15060.76
843.92	15044.38
844.10	14913.31
844.28	14923.55
844.45	15118.11
844.63	14823.20
844.81	14720.80
844.98	14999.32
845.16	14812.96
845.33	14671.65
845.51	14683.94
845.69	14540.58
845.86	14624.54
846.04	14534.43
846.21	14694.18
846.39	14767.90
846.57	14769.95
846.74	14593.83
846.92	14581.54
847.09	14538.53
847.27	14372.64
847.45	14626.59
847.62	14712.61
847.80	14642.98
847.97	14372.64
848.15	14436.13
848.32	14409.51
848.50	14376.74
848.68	14286.63
848.85	14356.26
849.03	14409.51
849.20	14380.84
849.38	14356.26
849.56	14309.16
849.73	14206.76
849.91	14370.60
850.08	14223.14
850.26	14090.02
850.43	14155.56
850.61	14180.14
850.78	14173.99
850.96	14245.67
851.14	13891.37
851.31	14116.65
851.49	14073.64
851.66	14204.71
851.84	13776.69
852.01	13893.42
852.19	14032.68
852.36	13887.28
852.54	13846.32
852.71	14014.25
852.89	13741.87
853.07	13952.81
853.24	13909.80
853.42	13784.88
853.59	13807.41
853.77	13768.49
853.94	13797.17
854.12	14012.20
854.29	13846.32
854.47	13899.56
854.64	13768.49
854.82	13678.38
854.99	13772.59
855.17	13756.21
855.34	13649.71
855.52	13487.92
855.69	13725.49
855.87	13553.46
856.04	13459.25
856.22	13563.70
856.39	13612.85
856.57	13481.78
856.74	13350.71
856.92	13573.94
857.09	13502.26
857.27	13602.61
857.44	13631.28
857.62	13518.64
857.79	13244.21
857.97	13309.75
858.14	13137.72
858.32	13287.22
858.49	13270.84
858.67	13365.04
858.84	13252.41
859.02	13176.63
859.19	13283.13
859.37	13092.66
859.54	13137.72
859.72	13201.21
859.89	12992.31
860.06	13080.38
860.24	12963.64
860.41	12937.02
860.59	13057.85
860.76	13094.71
860.94	12848.96
861.11	12980.03
861.29	12990.27
861.46	12752.70
861.64	13115.19
861.81	12728.13
861.98	12922.68
862.16	12828.48
862.33	12844.86
862.51	12715.84
862.68	12879.68
862.86	12541.76
863.03	12803.90
863.21	12660.54
863.38	12887.87
863.55	12533.57
863.73	12613.44
863.90	12748.61
864.08	12476.23
864.25	12779.32
864.43	12791.61
864.60	12447.55
864.77	12279.62
864.95	12590.91
865.12	12496.71
865.30	12609.34
865.47	12320.58
865.64	12433.22
865.82	12279.62
865.99	12521.28
866.17	12306.24
866.34	12455.75
866.51	12080.97
866.69	12365.64
866.86	12365.64
867.04	12222.28
867.21	12336.96
867.38	12128.07
867.56	12117.83
867.73	12136.26
867.91	12132.17
868.08	11956.04
868.25	12044.10
868.43	11978.57
868.60	12121.93
868.78	12099.40
868.95	12074.82
869.12	11786.06
869.30	11999.05
869.47	11999.05
869.64	11820.88
869.82	11718.48
869.99	11919.18
870.16	11765.58
870.34	11816.78
870.51	11835.21
870.69	11751.24
870.86	11929.42
871.03	11730.76
871.21	11915.08
871.38	11685.71
871.55	11685.71
871.73	11562.83
871.90	11638.61
872.07	11743.05
872.25	11489.10
872.42	11415.38
872.59	11667.28
872.77	11480.91
872.94	11292.50
873.11	11525.97
873.29	11499.34
873.46	11321.17
873.63	11165.53
873.81	11450.19
873.98	11255.64
874.15	11355.99
874.33	11155.29
874.50	11181.91
874.67	11206.48
874.85	11149.14
875.02	10958.68
875.19	10843.99
875.37	10880.86
875.54	11173.72
875.71	11224.92
875.88	11056.98
876.06	11116.37
876.23	11005.78
876.40	10956.63
876.58	10680.16
876.75	11018.07
876.92	10778.46
877.10	10895.19
877.27	10749.79
877.44	10743.64
877.61	10444.64
877.79	10674.01
877.96	10651.49
878.13	10643.29
878.31	10612.57
878.48	10698.59
878.65	10635.10
878.82	10332.00
879.00	10723.16
879.17	10633.05
879.34	10495.84
879.51	10463.07
879.69	10362.72
879.86	10393.44
880.03	10293.09
880.21	10383.20
880.38	10377.06
880.55	10305.38
880.72	10366.82
880.90	10321.76
881.07	10397.54
881.24	10356.58
881.41	10518.37
881.59	10145.64
881.76	10381.15
881.93	10155.88
882.10	10295.14
882.28	10145.64
882.45	10282.85
882.62	10270.56
882.79	10268.52
882.96	10057.57
883.14	10221.41
883.31	10135.40
883.48	10119.01
883.65	9998.18
883.83	10196.84
884.00	10125.16
884.17	10149.73
884.34	10006.38
884.51	9865.07
884.69	10125.16
884.86	10112.87
885.03	10119.01
885.20	9914.22
885.38	10129.25
885.55	9971.56
885.72	9951.08
885.89	9992.04
886.06	9996.14
886.24	10010.47
886.41	10041.19
886.58	9912.17
886.75	9961.32
886.92	9865.07
887.10	10016.62
887.27	9871.21
887.44	9820.01
887.61	9865.07
887.78	10008.42
887.95	9799.53
888.13	9652.08
888.30	9738.09
888.47	9781.10
888.64	9756.52
888.81	9736.04
888.99	9922.41
889.16	9582.45
889.33	9576.30
889.50	9586.54
889.67	9774.95
889.84	9656.17
890.01	9680.75
890.19	9637.74
890.36	9598.83
890.53	9406.32
890.70	9496.43
890.87	9607.02
891.04	9353.07
891.22	9508.72
891.39	9359.22
891.56	9316.21
891.73	9434.99
891.90	9365.36
892.07	9328.50
892.24	9588.59
892.42	9240.44
892.59	9379.70
892.76	9142.13
892.93	9297.78
893.10	9316.21
893.27	9125.75
893.44	9303.92
893.61	9285.49
893.79	9314.16
893.96	9193.33
894.13	9166.71
894.30	9262.96
894.47	9187.19
894.64	9027.45
894.81	9322.35
894.98	9432.94
895.15	9201.52
895.33	9162.61
895.50	9072.50
895.67	9258.87
895.84	9131.89
896.01	9117.56
896.18	8996.73
896.35	9074.55
896.52	8935.29
896.69	9009.01
896.86	9252.72
897.04	8845.18
897.21	9064.31
897.38	9070.45
897.55	9017.21
897.72	9015.16
897.89	8943.48
898.06	9115.51
898.23	8923.00
898.40	8945.53
898.57	8906.62
898.74	9011.06
898.91	8916.86
899.08	8966.01
899.26	9072.50
899.43	8900.47
899.60	8916.86
899.77	8943.48
899.94	8951.67
900.11	8943.48
900.28	8918.90
900.45	8871.80
900.62	8816.51
900.79	8931.19
900.96	8843.13
901.13	8916.86
901.30	8787.83
901.47	8800.12
901.64	8767.35
901.81	8994.68
901.98	8632.19
902.15	8771.45
902.32	8753.02
902.49	8818.55
902.66	8839.03
902.83	8611.71
903.01	8843.13
903.18	8865.66
903.35	8705.92
903.52	8734.59
903.69	8746.87
903.86	8836.99
904.03	8701.82
904.20	8929.14
904.37	8896.38
904.54	8828.79
904.71	8777.59
904.88	8765.31
905.05	8746.87
905.22	8734.59
905.39	8773.50
905.56	8777.59
905.73	8783.74
905.90	8785.79
906.07	8787.83
906.24	8601.47
906.41	8740.73
906.58	8908.66
906.75	8761.21
906.92	8642.43
907.09	8763.26
907.26	8699.77
907.43	8566.65
907.60	8591.23
907.77	8660.86
907.93	8796.03
908.10	8742.78
908.27	8765.31
908.44	8613.76
908.61	8497.02
908.78	8558.46
908.95	8511.36
909.12	8667.00
909.29	8591.23
909.46	8480.64
909.63	8576.89
909.80	8540.03
909.97	8470.40
910.14	8406.91
910.31	8626.04
910.48	8566.65
910.65	8587.13
910.82	8490.88
910.99	8605.56
911.16	8415.10
911.33	8468.35
911.50	8521.60
911.66	8482.69
911.83	8484.73
912.00	8357.76
912.17	8361.86
912.34	8402.82
912.51	8435.58
912.68	8521.60
912.85	8642.43
913.02	8408.96
913.19	8267.65
913.36	8368.00
913.53	8447.87
913.70	8212.35
913.86	8372.10
914.03	8392.58
914.20	8292.23
914.37	8265.60
914.54	8292.23
914.71	8267.65
914.88	8261.51
915.05	7952.26
915.22	8161.16
915.39	8130.44
915.55	8281.99
915.72	7966.60
915.89	8058.76
916.06	7999.37
916.23	8169.35
916.40	7968.65
916.57	7864.20
916.74	7894.92
916.91	8062.85
917.07	7901.06
917.24	7821.19
917.41	7987.08
917.58	7716.75
917.75	7841.67
917.92	7806.86
918.09	7845.77
918.26	7718.79
918.42	7907.21
918.59	7886.73
918.76	7651.21
918.93	7673.74
919.10	7505.81
919.27	7686.03
919.44	7528.33
919.60	7532.43
919.77	7548.81
919.94	7536.52
920.11	7475.09
920.28	7337.87
920.45	7301.01
920.61	7432.08
920.78	7409.55
920.95	7407.50
921.12	7462.80
921.29	7436.17
921.46	7350.16
921.62	7479.18
921.79	7374.74
921.96	7425.93
922.13	7202.71
922.30	7313.30
922.47	7194.51
922.63	7217.04
922.80	7235.47
922.97	7094.16
923.14	6907.80
923.31	6987.67
923.47	6993.81
923.64	7071.64
923.81	6918.04
923.98	7022.48
924.15	6950.81
924.32	6862.74
924.48	6930.33
924.65	6870.94
924.82	6850.46
924.99	6784.92
925.15	6651.80
925.32	6975.38
925.49	6709.15
925.66	6698.91
925.83	6698.91
925.99	6672.28
926.16	6604.70
926.33	6561.69
926.50	6436.77
926.67	6713.24
926.83	6485.92
927.00	6594.46
927.17	6567.84
927.34	6393.76
927.50	6348.70
927.67	6424.48
927.84	6447.01
928.01	6365.09
928.17	6440.86
928.34	6180.77
928.51	6350.75
928.68	6367.13
928.84	6143.91
929.01	6061.99
929.18	6102.95
929.35	6092.71
929.51	6125.47
929.68	6041.51
929.85	6102.95
930.02	6102.95
930.18	5975.97
930.35	6102.95
930.52	5957.54
930.69	5904.29
930.85	5980.07
931.02	5752.74
931.19	5803.94
931.36	5670.83
931.52	5822.38
931.69	5834.66
931.86	5736.36
932.02	5689.26
932.19	5650.35
932.36	5525.42
932.53	5685.16
932.69	5515.18
932.86	5611.43
933.03	5545.90
933.19	5527.47
933.36	5380.01
933.53	5689.26
933.70	5535.66
933.86	5513.13
934.03	5420.97
934.20	5363.63
934.36	5373.87
934.53	5259.18
934.70	5242.80
934.86	5359.53
935.03	5218.22
935.20	5296.05
935.36	5091.25
935.53	5226.42
935.70	4941.75
935.86	5171.12
936.03	4982.71
936.20	4872.12
936.36	5005.24
936.53	4841.40
936.70	4868.02
936.86	5095.35
937.03	4906.93
937.20	4763.58
937.36	4886.45
937.53	4704.18
937.70	4542.39
937.86	4595.64
938.03	4552.63
938.20	4642.75
938.36	4405.18
938.53	4521.92
938.70	4313.02
938.86	4452.28
939.03	4431.80
939.20	4296.64
939.36	4229.06
939.53	4267.97
939.70	4317.12
939.86	4075.46
940.03	4081.60
940.19	4145.09
940.36	3962.82
940.53	4079.55
940.69	3827.65
940.86	3809.22
941.03	3962.82
941.19	3669.96
941.36	3841.99
941.52	3684.30
941.69	3786.69
941.86	3598.28
942.02	3676.10
942.19	3624.90
942.35	3674.06
942.52	3676.10
942.69	3540.94
942.85	3518.41
943.02	3555.27
943.18	3596.23
943.35	3436.49
943.52	3420.11
943.68	3344.33
943.85	3456.97
944.01	3426.25
944.18	3485.64
944.35	3420.11
944.51	3379.15
944.68	3237.84
944.84	3252.17
945.01	3297.23
945.17	3254.22
945.34	3348.43
945.51	3297.23
945.67	3248.08
945.84	3235.79
946.00	3217.36
946.17	3200.98
946.33	3119.06
946.50	3186.64
946.67	3102.67
946.83	3157.97
947.00	3112.91
947.16	3172.30
947.33	3145.68
947.49	3145.68
947.66	3117.01
947.82	3190.74
947.99	3131.34
948.16	3174.35
948.32	3186.64
948.49	3151.82
948.65	3200.98
948.82	3123.15
948.98	3170.26
949.15	3102.67
949.31	3051.47
949.48	3155.92
949.64	3168.21
949.81	3076.05
949.97	3092.43
950.14	3061.71
950.30	3024.85
950.47	3123.15
950.63	3215.31
950.80	3026.90
950.96	3088.34
951.13	3051.47
951.30	3147.73
951.46	3026.90
951.63	3135.44
951.79	3071.95
951.96	3088.34
952.12	3168.21
952.29	3137.49
952.45	3104.72
952.62	3074.00
952.78	3102.67
952.94	3112.91
953.11	3080.14
953.27	3033.04
953.44	3084.24
953.60	3080.14
953.77	3086.29
953.93	3051.47
954.10	3028.95
954.26	3043.28
954.43	3069.91
954.59	3012.56
954.76	3182.54
954.92	3049.43
955.09	3071.95
955.25	3090.38
955.42	3035.09
955.58	3094.48
955.75	3108.82
955.91	3028.95
956.07	3076.05
956.24	3069.91
956.40	2987.99
956.57	3022.80
956.73	3030.99
956.90	2983.89
957.06	2961.36
957.23	3024.85
957.39	2942.93
957.56	3061.71
957.72	2897.88
957.88	2940.88
958.05	2992.08
958.21	2949.08
958.38	2908.12
958.54	2926.55
958.71	3106.77
958.87	2967.51
959.03	2936.79
959.20	2985.94
959.36	2944.98
959.53	2973.65
959.69	2981.84
959.85	2944.98
960.02	2934.74
960.18	2987.99
960.35	2979.79
960.51	3022.80
960.68	2990.03
960.84	3000.27
961.00	2885.59
961.17	2895.83
961.33	2891.73
961.50	2987.99
961.66	2914.26
961.82	2832.34
961.99	2918.36
962.15	2873.30
962.31	2893.78
962.48	2865.11
962.64	2965.46
962.81	2920.40
962.97	2820.05
963.13	2877.40
963.30	2924.50
963.46	2873.30
963.62	2828.24
963.79	2901.97
963.95	2889.68
964.12	2881.49
964.28	2844.63
964.44	2891.73
964.61	2861.01
964.77	2977.75
964.93	2932.69
965.10	2820.05
965.26	2750.42
965.42	2842.58
965.59	2854.87
965.75	2920.40
965.92	2850.77
966.08	2930.64
966.24	2938.84
966.41	2807.77
966.57	2785.24
966.73	2811.86
966.90	2813.91
967.06	2762.71
967.22	2797.53
967.39	2748.37
967.55	2736.09
967.71	2781.14
967.88	2846.68
968.04	2799.57
968.20	2752.47
968.37	2781.14
968.53	2770.90
968.69	2840.53
968.85	2805.72
969.02	2734.04
969.18	2705.37
969.34	2729.94
969.51	2797.53
969.67	2770.90
969.83	2723.80
970.00	2684.89
970.16	2787.29
970.32	2744.28
970.48	2717.65
970.65	2736.09
970.81	2711.51
970.97	2672.60
971.14	2684.89
971.30	2836.44
971.46	2695.13
971.63	2725.85
971.79	2680.79
971.95	2736.09
972.11	2596.82
972.28	2656.22
972.44	2770.90
972.60	2701.27
972.76	2652.12
972.93	2605.02
973.09	2658.26
973.25	2592.73
973.42	2625.50
973.58	2668.50
973.74	2686.94
973.90	2799.57
974.07	2793.43
974.23	2510.81
974.39	2705.37
974.55	2715.61
974.72	2639.83
974.88	2596.82
975.04	2656.22
975.20	2598.87
975.37	2654.17
975.53	2623.45
975.69	2582.49
975.85	2594.78
976.01	2639.83
976.18	2533.34
976.34	2562.01
976.50	2547.67
976.66	2609.11
976.83	2664.41
976.99	2629.59
977.15	2545.63
977.31	2451.42
977.47	2711.51
977.64	2648.02
977.80	2541.53
977.96	2480.09
978.12	2555.86
978.29	2506.71
978.45	2629.59
978.61	2549.72
978.77	2580.44
978.93	2607.06
979.10	2602.97
979.26	2545.63
979.42	2525.15
979.58	2475.99
979.74	2492.38
979.91	2496.47
980.07	2475.99
980.23	2562.01
980.39	2473.95
980.55	2459.61
980.71	2521.05
980.88	2453.47
981.04	2605.02
981.20	2570.20
981.36	2463.71
981.52	2432.99
981.68	2381.79
981.85	2455.51
982.01	2475.99
982.17	2461.66
982.33	2471.90
982.49	2500.57
982.65	2541.53
982.82	2598.87
982.98	2396.12
983.14	2422.75
983.30	2457.56
983.46	2543.58
983.62	2420.70
983.79	2400.22
983.95	2387.93
984.11	2361.31
984.27	2418.65
984.43	2357.21
984.59	2351.07
984.75	2412.51
984.91	2455.51
985.08	2455.51
985.24	2371.55
985.40	2351.07
985.56	2308.06
985.72	2359.26
985.88	2422.75
986.04	2369.50
986.20	2363.36
986.37	2285.53
986.53	2353.12
986.69	2385.88
986.85	2363.36
987.01	2332.64
987.17	2303.96
987.33	2344.92
987.49	2283.49
987.65	2430.94
987.82	2301.92
987.98	2295.77
988.14	2351.07
988.30	2310.11
988.46	2322.40
988.62	2349.02
988.78	2369.50
988.94	2263.01
989.10	2232.29
989.26	2308.06
989.42	2289.63
989.59	2197.47
989.75	2236.38
989.91	2334.68
990.07	2308.06
990.23	2267.10
990.39	2265.05
990.55	2283.49
990.71	2215.90
990.87	2238.43
991.03	2279.39
991.19	2248.67
991.35	2359.26
991.51	2215.90
991.67	2332.64
991.83	2297.82
992.00	2271.20
992.16	2314.20
992.32	2277.34
992.48	2336.73
992.64	2222.05
992.80	2113.50
992.96	2166.75
993.12	2260.96
993.28	2254.81
993.44	2197.47
993.60	2197.47
993.76	2176.99
993.92	2301.92
994.08	2299.87
994.24	2226.14
994.40	2303.96
994.56	2213.85
994.72	2217.95
994.88	2154.46
995.04	2183.13
995.20	2181.09
995.36	2176.99
995.52	2267.10
995.68	2195.42
995.84	2162.66
996.00	2189.28
996.16	2179.04
996.32	2201.57
996.48	2123.74
996.64	2129.89
996.80	2152.42
996.96	2174.94
997.12	2123.74
997.28	2111.46
997.44	2107.36
997.60	2140.13
997.76	2127.84
997.92	2131.94
998.08	2107.36
998.24	2093.02
998.40	2148.32
998.56	2138.08
998.72	2084.83
998.88	2115.55
999.04	2154.46
999.20	2111.46
999.36	2113.50
999.52	2207.71
999.68	2099.17
999.84	2164.70
1000.00	2220.00
1000.16	2191.33
1000.32	2131.94
1000.48	2156.51
1000.64	2140.13
1000.80	2070.50
1000.95	2072.54
1001.11	2136.03
1001.27	2050.02
1001.43	2148.32
1001.59	2027.49
1001.75	2113.50
1001.91	2068.45
1002.07	2123.74
1002.23	2107.36
1002.39	2045.92
1002.55	2160.61
1002.71	2093.02
1002.87	2070.50
1003.03	2000.87
1003.19	2019.30
1003.34	2086.88
1003.50	2052.06
1003.66	2041.82
1003.82	2103.26
1003.98	1984.48
1004.14	2064.35
1004.30	1992.67
1004.46	1916.90
1004.62	2052.06
1004.78	2019.30
1004.94	2099.17
1005.09	2072.54
1005.25	2013.15
1005.41	2002.91
1005.57	2045.92
1005.73	1955.81
1005.89	2062.30
1006.05	2037.73
1006.21	2060.26
1006.37	1972.19
1006.52	2025.44
1006.68	1998.82
1006.84	2062.30
1007.00	1976.29
1007.16	2017.25
1007.32	1994.72
1007.48	1970.15
1007.64	1943.52
1007.79	2031.58
1007.95	2007.01
1008.11	1951.71
1008.27	1994.72
1008.43	1943.52
1008.59	1959.91
1008.75	2082.78
1008.91	1982.43
1009.06	1996.77
1009.22	1988.58
1009.38	1951.71
1009.54	1935.33
1009.70	2002.91
1009.86	1974.24
1010.01	1945.57
1010.17	1933.28
1010.33	2009.06
1010.49	1961.95
1010.65	2002.91
1010.81	1873.89
1010.96	1898.47
1011.12	1966.05
1011.28	1959.91
1011.44	2004.96
1011.60	1923.04
1011.76	1882.08
1011.91	2017.25
1012.07	1894.37
1012.23	1875.94
1012.39	1935.33
1012.55	2021.35
1012.71	1890.28
1012.86	1951.71
1013.02	1869.80
1013.18	1914.85
1013.34	1845.22
1013.50	1984.48
1013.65	1953.76
1013.81	1974.24
1013.97	1955.81
1014.13	1927.14
1014.29	1937.38
1014.44	1898.47
1014.60	1925.09
1014.76	1953.76
1014.92	2000.87
1015.07	1869.80
1015.23	1871.84
1015.39	1855.46
1015.55	1925.09
1015.71	1929.19
1015.86	1857.51
1016.02	1800.16
1016.18	1824.74
1016.34	1847.27
1016.49	1863.65
1016.65	2004.96
1016.81	1906.66
1016.97	1925.09
1017.12	1865.70
1017.28	1892.32
1017.44	1851.36
1017.60	1863.65
1017.75	1839.08
1017.91	1888.23
1018.07	1839.08
1018.23	1757.16
1018.38	1849.32
1018.54	1814.50
1018.70	1859.56
1018.86	1865.70
1019.01	1789.92
1019.17	1855.46
1019.33	1834.98
1019.49	1861.60
1019.64	1847.27
1019.80	1830.88
1019.96	1873.89
1020.12	1849.32
1020.27	1724.39
1020.43	1841.12
1020.59	1832.93
1020.74	1761.25
1020.90	1925.09
1021.06	1761.25
1021.22	1753.06
1021.37	1839.08
1021.53	1853.41
1021.69	1834.98
1021.84	1761.25
1022.00	1822.69
1022.16	1834.98
1022.31	1689.57
1022.47	1816.55
1022.63	1832.93
1022.79	1677.29
1022.94	1816.55
1023.10	1798.12
1023.26	1796.07
1023.41	1824.74
1023.57	1755.11
1023.73	1826.79
1023.88	1720.29
1024.04	1730.53
1024.20	1722.34
1024.35	1845.22
1024.51	1769.44
1024.67	1808.36
1024.82	1894.37
1024.98	1761.25
1025.14	1759.21
1025.29	1761.25
1025.45	1834.98
1025.61	1744.87
1025.76	1773.54
1025.92	1800.16
1026.08	1791.97
1026.23	1755.11
1026.39	1791.97
1026.55	1771.49
1026.70	1695.72
1026.86	1814.50
1027.02	1810.40
1027.17	1759.21
1027.33	1791.97
1027.48	1777.64
1027.64	1802.21
1027.80	1746.92
1027.95	1712.10
1028.11	1683.43
1028.27	1796.07
1028.42	1728.49
1028.58	1736.68
1028.73	1736.68
1028.89	1658.85
1029.05	1798.12
1029.20	1785.83
>>>>>End Processed Spectral Data<<<<<
