SpectraSuite Data File
++++++++++++++++++++++++++++++++++++
Date: Tue Jun 13 11:56:49 CEST 2017
User: INFO_000
Dark Spectrum Present: No
Reference Spectrum Present: No
Number of Sampled Component Spectra: 1
Spectrometers: USB4H00879
Integration Time (usec): 30000 (USB4H00879)
Spectra Averaged: 1 (USB4H00879)
Boxcar Smoothing: 0 (USB4H00879)
Correct for Electrical Dark: No (USB4H00879)
Strobe/Lamp Enabled: No (USB4H00879)
Correct for Detector Non-linearity: No (USB4H00879)
Correct for Stray Light: No (USB4H00879)
Number of Pixels in Processed Spectrum: 3648
>>>>>Begin Processed Spectral Data<<<<<
345.13	1298.41
345.34	1298.41
345.56	1298.41
345.78	1337.32
345.99	1300.46
346.21	1515.50
346.42	1501.16
346.64	1445.87
346.86	1609.70
347.07	1476.59
347.29	1515.50
347.50	1519.59
347.72	1538.02
347.94	1613.80
348.15	1411.05
348.37	1476.59
348.59	1509.35
348.80	1581.03
349.02	1546.22
349.23	1640.42
349.45	1558.50
349.67	1638.38
349.88	1546.22
350.10	1652.71
350.31	1667.05
350.53	1644.52
350.75	1601.51
350.96	1572.84
351.18	1646.57
351.39	1597.42
351.61	1601.51
351.82	1593.32
352.04	1648.61
352.26	1609.70
352.47	1636.33
352.69	1662.95
352.90	1488.87
353.12	1701.86
353.34	1603.56
353.55	1601.51
353.77	1685.48
353.98	1562.60
354.20	1617.90
354.41	1607.66
354.63	1597.42
354.85	1720.29
355.06	1646.57
355.28	1554.41
355.49	1636.33
355.71	1667.05
355.92	1589.22
356.14	1683.43
356.35	1636.33
356.57	1605.61
356.79	1662.95
357.00	1689.57
357.22	1732.58
357.43	1679.33
357.65	1779.68
357.86	1619.94
358.08	1636.33
358.29	1703.91
358.51	1701.86
358.72	1654.76
358.94	1695.72
359.16	1671.14
359.37	1656.81
359.59	1660.90
359.80	1777.64
360.02	1710.05
360.23	1724.39
360.45	1681.38
360.66	1677.29
360.88	1603.56
361.09	1640.42
361.31	1708.01
361.52	1632.23
361.74	1685.48
361.95	1687.53
362.17	1708.01
362.38	1652.71
362.60	1691.62
362.81	1777.64
363.03	1658.85
363.24	1695.72
363.46	1720.29
363.67	1644.52
363.89	1667.05
364.10	1724.39
364.32	1726.44
364.53	1701.86
364.75	1660.90
364.96	1697.77
365.18	1732.58
365.39	1703.91
365.61	1730.53
365.82	1777.64
366.04	1708.01
366.25	1701.86
366.47	1771.49
366.68	1724.39
366.90	1671.14
367.11	1714.15
367.33	1685.48
367.54	1828.84
367.76	1712.10
367.97	1736.68
368.19	1785.83
368.40	1794.02
368.62	1740.77
368.83	1787.88
369.05	1757.16
369.26	1734.63
369.48	1736.68
369.69	1701.86
369.91	1701.86
370.12	1730.53
370.33	1775.59
370.55	1712.10
370.76	1730.53
370.98	1779.68
371.19	1724.39
371.41	1759.21
371.62	1763.30
371.84	1763.30
372.05	1759.21
372.27	1759.21
372.48	1800.16
372.69	1837.03
372.91	1773.54
373.12	1855.46
373.34	1746.92
373.55	1828.84
373.77	1826.79
373.98	1884.13
374.20	1791.97
374.41	1882.08
374.62	1787.88
374.84	1818.60
375.05	1896.42
375.27	1859.56
375.48	1859.56
375.70	1810.40
375.91	1818.60
376.12	1880.04
376.34	1839.08
376.55	1834.98
376.77	1826.79
376.98	1890.28
377.19	1900.52
377.41	1894.37
377.62	1865.70
377.84	1933.28
378.05	1902.56
378.27	1834.98
378.48	1968.10
378.69	1939.43
378.91	1853.41
379.12	1824.74
379.34	1863.65
379.55	1949.67
379.76	1966.05
379.98	1910.75
380.19	1857.51
380.41	1888.23
380.62	1880.04
380.83	2004.96
381.05	1888.23
381.26	2031.58
381.47	1931.23
381.69	1871.84
381.90	2002.91
382.12	1955.81
382.33	1935.33
382.54	1918.95
382.76	1943.52
382.97	1953.76
383.19	1908.71
383.40	2045.92
383.61	2013.15
383.83	1918.95
384.04	1939.43
384.25	1939.43
384.47	2009.06
384.68	1982.43
384.89	1941.47
385.11	2023.39
385.32	2011.11
385.54	1951.71
385.75	2041.82
385.96	2099.17
386.18	2105.31
386.39	1990.63
386.60	1984.48
386.82	2050.02
387.03	2060.26
387.24	2097.12
387.46	2004.96
387.67	2078.69
387.88	2125.79
388.10	2099.17
388.31	2076.64
388.52	2117.60
388.74	2236.38
388.95	2101.22
389.16	2197.47
389.38	2086.88
389.59	2136.03
389.80	2146.27
390.02	2189.28
390.23	2199.52
390.44	2209.76
390.66	2129.89
390.87	2117.60
391.08	2179.04
391.30	2238.43
391.51	2230.24
391.72	2201.57
391.94	2222.05
392.15	2308.06
392.36	2189.28
392.58	2174.94
392.79	2185.18
393.00	2306.01
393.22	2256.86
393.43	2330.59
393.64	2369.50
393.85	2275.29
394.07	2287.58
394.28	2377.69
394.49	2301.92
394.71	2426.84
394.92	2314.20
395.13	2353.12
395.35	2277.34
395.56	2373.60
395.77	2346.97
395.98	2408.41
396.20	2381.79
396.41	2484.19
396.62	2400.22
396.84	2412.51
397.05	2435.03
397.26	2430.94
397.47	2469.85
397.69	2475.99
397.90	2514.91
398.11	2482.14
398.32	2494.43
398.54	2451.42
398.75	2463.71
398.96	2428.89
399.18	2566.10
399.39	2506.71
399.60	2590.68
399.81	2441.18
400.03	2500.57
400.24	2717.65
400.45	2516.95
400.66	2613.21
400.88	2650.07
401.09	2615.26
401.30	2639.83
401.51	2664.41
401.73	2590.68
401.94	2578.39
402.15	2643.93
402.36	2615.26
402.58	2570.20
402.79	2705.37
403.00	2643.93
403.21	2654.17
403.43	2666.46
403.64	2766.81
403.85	2631.64
404.06	2729.94
404.27	2691.03
404.49	2709.46
404.70	2680.79
404.91	2770.90
405.12	2772.95
405.34	2709.46
405.55	2818.00
405.76	2623.45
405.97	2750.42
406.19	2811.86
406.40	2750.42
406.61	2838.48
406.82	2906.07
407.03	2762.71
407.25	2828.24
407.46	2967.51
407.67	2940.88
407.88	2949.08
408.09	2809.81
408.31	2881.49
408.52	2877.40
408.73	2861.01
408.94	2856.92
409.15	2865.11
409.37	2983.89
409.58	3000.27
409.79	2944.98
410.00	2961.36
410.21	2922.45
410.43	2955.22
410.64	2914.26
410.85	2932.69
411.06	3078.10
411.27	3131.34
411.48	3004.37
411.70	3088.34
411.91	3088.34
412.12	3100.62
412.33	3030.99
412.54	3127.25
412.76	3112.91
412.97	3088.34
413.18	3051.47
413.39	3153.87
413.60	3145.68
413.81	3110.86
414.03	3069.91
414.24	3166.16
414.45	3227.60
414.66	3164.11
414.87	3145.68
415.08	3241.93
415.30	3164.11
415.51	3229.65
415.72	3213.26
415.93	3233.74
416.14	3227.60
416.35	3301.33
416.56	3186.64
416.78	3305.42
416.99	3149.78
417.20	3123.15
417.41	3465.16
417.62	3286.99
417.83	3235.79
418.04	3370.96
418.26	3315.66
418.47	3248.08
418.68	3366.86
418.89	3350.48
419.10	3409.87
419.31	3452.88
419.52	3463.12
419.73	3506.12
419.95	3563.47
420.16	3428.30
420.37	3487.69
420.58	3450.83
420.79	3450.83
421.00	3588.04
421.21	3629.00
421.42	3428.30
421.63	3663.82
421.85	3594.19
422.06	3674.06
422.27	3502.03
422.48	3530.70
422.69	3735.50
422.90	3719.11
423.11	3735.50
423.32	3647.43
423.53	3739.59
423.75	3710.92
423.96	3813.32
424.17	3698.63
424.38	3762.12
424.59	3801.03
424.80	3999.68
425.01	3837.89
425.22	3813.32
425.43	3805.13
425.64	3999.68
425.85	3993.54
426.06	3899.33
426.28	3971.01
426.49	3909.57
426.70	3932.10
426.91	3841.99
427.12	4067.27
427.33	3991.49
427.54	3999.68
427.75	4112.32
427.96	4171.71
428.17	4032.45
428.38	4247.49
428.59	4163.52
428.80	4124.61
429.01	4192.19
429.23	4239.30
429.44	4321.21
429.65	4227.01
429.86	4288.45
430.07	4210.62
430.28	4356.03
430.49	4372.41
430.70	4376.51
430.91	4343.74
431.12	4458.43
431.33	4458.43
431.54	4366.27
431.75	4353.98
431.96	4435.90
432.17	4417.47
432.38	4464.57
432.59	4528.06
432.80	4413.37
433.01	4448.19
433.22	4712.38
433.43	4650.94
433.64	4575.16
433.85	4480.96
434.06	4612.03
434.27	4624.31
434.49	4882.36
434.70	4786.10
434.91	4626.36
435.12	4786.10
435.33	4714.42
435.54	4835.25
435.75	4843.45
435.96	4712.38
436.17	4599.74
436.38	4857.78
436.59	4841.40
436.80	4745.14
437.01	5070.77
437.22	5015.48
437.43	4960.18
437.64	4933.56
437.85	5050.29
438.06	5033.91
438.27	4831.16
438.48	4974.52
438.69	5013.43
438.90	5033.91
439.11	5038.00
439.32	5085.11
439.53	5175.22
439.74	5234.61
439.95	5218.22
440.16	5081.01
440.37	5173.17
440.57	5099.44
440.78	5074.87
440.99	5197.74
441.20	5310.38
441.41	5175.22
441.62	5285.81
441.83	5144.50
442.04	5443.50
442.25	5259.18
442.46	5365.68
442.67	5527.47
442.88	5683.11
443.09	5203.89
443.30	5201.84
443.51	5525.42
443.72	5570.48
443.93	5506.99
444.14	5711.78
444.35	5441.45
444.56	5402.54
444.77	5595.05
444.98	5633.96
445.19	5767.08
445.40	5695.40
445.61	5724.07
445.81	5631.91
446.02	5838.76
446.23	5779.37
446.44	5496.75
446.65	5633.96
446.86	5656.49
447.07	5765.03
447.28	6021.03
447.49	5787.56
447.70	5818.28
447.91	5861.29
448.12	5986.21
448.33	5842.85
448.54	5953.45
448.74	5756.84
448.95	6002.60
449.16	5924.77
449.37	6100.90
449.58	5906.34
449.79	6203.30
450.00	6084.52
450.21	6148.00
450.42	6268.83
450.63	6244.26
450.84	6164.39
451.05	6094.76
451.25	6080.42
451.46	6168.48
451.67	6377.37
451.88	6358.94
452.09	6426.53
452.30	6264.74
452.51	6332.32
452.72	6272.93
452.93	6637.47
453.13	6305.70
453.34	6297.50
453.55	6404.00
453.76	6436.77
453.97	6731.67
454.18	6743.96
454.39	6469.53
454.60	6743.96
454.81	6602.65
455.01	6881.18
455.22	6498.20
455.43	6707.10
455.64	6981.53
455.85	7059.35
456.06	7024.53
456.27	6860.70
456.48	7014.29
456.68	7012.24
456.89	7036.82
457.10	7131.03
457.31	6967.19
457.52	7024.53
457.73	7190.42
457.94	7440.27
458.14	6852.50
458.35	7372.69
458.56	7280.53
458.77	7239.57
458.98	7280.53
459.19	7331.73
459.39	7397.26
459.60	7503.76
459.81	7491.47
460.02	7540.62
460.23	7454.61
460.44	7647.12
460.65	7790.47
460.85	7694.22
461.06	7694.22
461.27	7600.01
461.48	7905.16
461.69	8101.76
461.89	7753.61
462.10	7874.44
462.31	7821.19
462.52	7813.00
462.73	7974.79
462.94	8134.53
463.14	8204.16
463.35	7911.30
463.56	8265.60
463.77	8259.46
463.98	8181.64
464.18	8069.00
464.39	8341.38
464.60	8480.64
464.81	8613.76
465.02	8363.90
465.23	8562.56
465.43	8445.82
465.64	8693.63
465.85	8728.44
466.06	8583.04
466.27	8966.01
466.47	9013.11
466.68	8746.87
466.89	8644.48
467.10	8982.39
467.30	8925.05
467.51	9121.65
467.72	9273.20
467.93	8916.86
468.14	9260.91
468.34	9385.84
468.55	9291.63
468.76	9394.03
468.97	9164.66
469.17	9535.34
469.38	9592.69
469.59	9570.16
469.80	9432.94
470.01	9867.11
470.21	9580.40
470.42	9840.49
470.63	10092.39
470.84	9848.68
471.04	9998.18
471.25	9965.42
471.46	9791.34
471.67	9863.02
471.87	10200.93
472.08	10166.12
472.29	10463.07
472.50	10045.29
472.70	10231.65
472.91	10430.30
473.12	10745.69
473.33	10317.67
473.53	10796.89
473.74	10659.68
473.95	10993.50
474.16	11069.27
474.36	10903.39
474.57	11132.76
474.78	11294.55
474.99	11063.13
475.19	11190.10
475.40	11319.12
475.61	11499.34
475.81	11548.50
476.02	11933.51
476.23	11382.61
476.44	11659.09
476.64	11747.15
476.85	11855.69
477.06	11867.98
477.27	12076.87
477.47	12164.93
477.68	12070.73
477.89	12300.10
478.09	12230.47
478.30	12330.82
478.51	12472.13
478.71	12492.61
478.92	12601.15
479.13	12805.95
479.34	12791.61
479.54	12707.65
479.75	12797.76
479.96	13090.62
480.16	13078.33
480.37	13006.65
480.58	13403.96
480.78	13446.96
480.99	13592.37
481.20	13489.97
481.41	13618.99
481.61	13621.04
481.82	13754.16
482.03	13672.24
482.23	13944.62
482.44	14071.59
482.65	14286.63
482.85	14274.34
483.06	14374.69
483.27	14255.91
483.47	14276.39
483.68	14323.49
483.89	14612.26
484.09	14397.22
484.30	14681.89
484.51	14851.87
484.71	14941.98
484.92	14677.79
485.13	15191.83
485.33	15030.04
485.54	15130.39
485.75	15283.99
485.95	15662.86
486.16	15322.90
486.37	15636.24
486.57	15482.64
486.78	15671.06
486.98	15693.58
487.19	15843.09
487.40	15916.81
487.60	15972.11
487.81	16203.53
488.02	16129.80
488.22	16090.89
488.43	16221.96
488.64	16293.64
488.84	16367.37
489.05	16445.19
489.25	16566.02
489.46	16750.34
489.67	16721.66
489.87	16905.98
490.08	17004.28
490.29	16895.74
490.49	17219.32
490.70	17219.32
490.90	17342.20
491.11	17309.43
491.32	17426.17
491.52	17514.23
491.73	17702.64
491.94	17743.60
492.14	17698.55
492.35	17921.77
492.55	17788.66
492.76	18065.13
492.97	18132.72
493.17	17905.39
493.38	18204.39
493.58	18396.90
493.79	18519.78
494.00	18290.41
494.20	18609.89
494.41	18716.39
494.61	18790.11
494.82	18675.43
495.02	18669.28
495.23	18810.59
495.44	19095.26
495.64	18976.48
495.85	19060.45
496.05	19211.99
496.26	19238.62
496.47	19480.28
496.67	19267.29
496.88	19443.42
497.08	19246.81
497.29	19789.52
497.49	19545.81
497.70	19713.75
497.91	19810.00
498.11	19760.85
498.32	19836.63
498.52	20090.57
498.73	20205.26
498.93	20131.53
499.14	20391.62
499.34	20311.75
499.55	20385.48
499.76	20440.78
499.96	20625.09
500.17	20313.80
500.37	20539.08
500.58	20618.95
500.78	20707.01
500.99	20782.79
501.19	20860.61
501.40	20856.51
501.60	20960.96
501.81	21083.84
502.02	21171.90
502.22	20790.98
502.43	20893.38
502.63	21626.55
502.84	21395.13
503.04	21417.66
503.25	21374.65
503.45	21329.59
503.66	21372.60
503.86	21561.02
504.07	21728.95
504.27	21700.28
504.48	21915.31
504.68	21679.80
504.89	21786.29
505.09	22206.13
505.30	21935.79
505.50	21986.99
505.71	22154.93
505.91	22249.13
506.12	22238.89
506.32	22386.35
506.53	22302.38
506.73	22429.35
506.94	22412.97
507.14	22509.22
507.35	22609.58
507.55	22470.31
507.76	22484.65
507.96	22556.33
508.17	22666.92
508.37	22851.24
508.58	22826.66
508.78	22865.57
508.99	23066.27
509.19	22673.06
509.40	22980.26
509.60	23324.32
509.81	22873.76
510.01	23096.99
510.22	23256.73
510.42	22986.40
510.63	23430.81
510.83	23322.27
511.04	23285.40
511.24	23209.63
511.44	23418.52
511.65	23678.61
511.85	23375.52
512.06	23502.49
512.26	23617.18
512.47	23541.40
512.67	23586.46
512.88	23539.35
513.08	23514.78
513.29	23973.52
513.49	23830.16
513.69	24092.30
513.90	24188.56
514.10	24069.78
514.31	23811.73
514.51	24342.16
514.72	24280.72
514.92	24049.30
515.13	24172.18
515.33	24362.64
515.53	24403.60
515.74	24192.65
515.94	24540.81
516.15	24405.64
516.35	24350.35
516.56	24651.40
516.76	24704.65
516.96	24497.80
517.17	24673.93
517.37	24764.04
517.58	24628.87
517.78	24696.46
517.99	24802.95
518.19	25187.97
518.39	25046.66
518.60	25147.01
518.80	24936.07
519.01	25276.03
519.21	24874.63
519.41	25220.74
519.62	25327.23
519.82	25179.78
520.03	25755.26
520.23	25538.17
520.43	25271.93
520.64	25497.21
520.84	25747.06
521.05	25468.54
521.25	26033.78
521.45	25972.34
521.66	26275.44
521.86	26072.69
522.07	26166.90
522.27	26048.11
522.47	25951.86
522.68	26332.78
522.88	26158.70
523.08	26377.84
523.29	26390.13
523.49	26592.87
523.70	26181.23
523.90	26599.02
524.10	26519.15
524.31	26551.91
524.51	26551.91
524.71	26685.03
524.92	26879.59
525.12	26963.56
525.33	26969.70
525.53	26988.13
525.73	27342.43
525.94	26977.89
526.14	27158.11
526.34	27709.02
526.55	27381.34
526.75	27197.02
526.95	27117.15
527.16	27496.03
527.36	27643.48
527.56	27577.95
527.77	28051.03
527.97	27823.70
528.17	27498.08
528.38	28229.20
528.58	27895.38
528.78	27936.34
528.99	28055.12
529.19	28591.69
529.39	27690.59
529.60	28597.84
529.80	28345.94
530.00	28227.15
530.21	28620.36
530.41	28616.27
530.61	28372.56
530.82	28571.21
531.02	28442.19
531.22	28884.55
531.43	28874.31
531.63	29093.44
531.83	29075.01
532.04	29232.71
532.24	29126.21
532.44	29335.10
532.64	29331.01
532.85	29601.34
533.05	29187.65
533.25	29560.38
533.46	29285.95
533.66	29830.71
533.86	29699.64
534.07	29814.33
534.27	29931.06
534.47	30182.96
534.67	30094.90
534.88	29963.83
535.08	29793.85
535.28	30592.56
535.49	30303.79
535.69	30545.45
535.89	30391.86
536.09	30389.81
536.30	30748.20
536.50	30520.88
536.70	30922.28
536.91	30805.55
537.11	30778.92
537.31	30905.90
537.51	30942.76
537.72	31209.00
537.92	31141.41
538.12	31659.55
538.32	31055.40
538.53	31464.99
538.73	31460.90
538.93	31464.99
539.13	31600.16
539.34	31606.30
539.54	31620.64
539.74	31776.28
539.94	31596.06
540.15	31637.02
540.35	31827.48
540.55	31649.31
540.75	31999.51
540.96	31964.70
541.16	32022.04
541.36	31850.01
541.56	32251.41
541.77	32130.58
541.97	32202.26
542.17	32292.37
542.37	32253.46
542.58	32443.92
542.78	32278.04
542.98	32394.77
543.18	32570.90
543.38	33080.84
543.59	32697.87
543.79	32405.01
543.99	32632.33
544.19	33000.97
544.40	32787.98
544.60	33392.13
544.80	32917.00
545.00	33033.74
545.20	33302.02
545.41	33013.26
545.61	33369.60
545.81	33959.42
546.01	33439.23
546.21	33453.57
546.42	33428.99
546.62	33351.17
546.82	33502.72
547.02	33510.91
547.22	33439.23
547.43	33461.76
547.63	33734.14
547.83	33541.63
548.03	33973.75
548.23	33637.89
548.44	34225.65
548.64	33889.79
548.84	33936.89
549.04	33967.61
549.24	33920.51
549.45	34199.03
549.65	34315.76
549.85	34156.02
550.05	34500.08
550.25	34414.07
550.45	34770.41
550.66	34289.14
550.86	33895.93
551.06	34106.87
551.26	34500.08
551.46	34575.86
551.66	34680.30
551.87	34649.58
552.07	34813.42
552.27	34690.54
552.47	34733.55
552.67	34698.73
552.87	34682.35
553.07	34815.47
553.28	34512.37
553.48	34977.26
553.68	34797.04
553.88	35007.98
554.08	35263.97
554.28	35151.34
554.48	34792.94
554.69	34932.20
554.89	35137.00
555.09	35417.57
555.29	34815.47
555.49	34819.56
555.69	35296.74
555.89	34760.17
556.10	35329.51
556.30	35218.92
556.50	35325.41
556.70	35175.91
556.90	35093.99
557.10	35304.93
557.30	34878.96
557.50	35257.83
557.70	35212.77
557.91	35546.59
558.11	35507.68
558.31	35567.07
558.51	35636.70
558.71	35712.48
558.91	35847.64
559.11	35327.46
559.31	35921.37
559.51	35405.28
559.72	35792.35
559.92	35935.71
560.12	35614.18
560.32	35872.22
560.52	35921.37
560.72	35909.08
560.92	35583.46
561.12	35814.88
561.32	36416.98
561.52	35743.20
561.72	36031.96
561.93	36152.79
562.13	36251.09
562.33	35919.32
562.53	36214.23
562.73	35900.89
562.93	36285.91
563.13	36105.69
563.33	36253.14
563.53	36546.00
563.73	36068.83
563.93	36081.11
564.13	36718.03
564.33	36091.35
564.53	36097.50
564.74	36429.27
564.94	36234.71
565.14	36423.12
565.34	36376.02
565.54	36388.31
565.74	36419.03
565.94	36646.35
566.14	36271.57
566.34	36689.36
566.54	36795.85
566.74	36212.18
566.94	36601.30
567.14	36638.16
567.34	36249.05
567.54	36836.81
567.74	36656.59
567.94	36644.30
568.14	36617.68
568.34	36490.71
568.54	36703.70
568.74	36836.81
568.94	36701.65
569.14	37154.25
569.34	37072.33
569.54	36861.39
569.75	36646.35
569.95	36928.97
570.15	37082.57
570.35	37098.95
570.55	36791.76
570.75	37088.71
570.95	36826.57
571.15	36818.38
571.35	37166.54
571.55	37379.53
571.75	37021.13
571.95	37074.38
572.15	37516.74
572.35	37057.99
572.55	36918.73
572.75	37068.23
572.95	36980.17
573.15	37535.17
573.35	37426.63
573.55	37635.52
573.75	37492.16
573.95	37780.93
574.15	37559.75
574.35	37619.14
574.55	37608.90
574.75	37580.23
574.95	37782.98
575.15	37291.46
575.34	37668.29
575.54	37658.05
575.74	37610.95
575.94	37674.43
576.14	37627.33
576.34	38045.12
576.54	38098.36
576.74	38145.47
576.94	38030.78
577.14	37918.14
577.34	38340.02
577.54	38090.17
577.74	38303.16
577.94	38172.09
578.14	38202.81
578.34	38538.68
578.54	37656.00
578.74	38065.60
578.94	38124.99
579.14	38153.66
579.34	38170.04
579.54	38196.67
579.74	38913.45
579.94	38321.59
580.13	38661.55
580.33	38718.90
580.53	38720.95
580.73	38204.86
580.93	38456.76
581.13	38817.20
581.33	38913.45
581.53	38899.12
581.73	38811.06
581.93	39034.28
582.13	38940.08
582.33	38901.17
582.53	38923.69
582.73	38802.86
582.92	38847.92
583.12	39060.91
583.32	38935.98
583.52	39065.00
583.72	39288.23
583.92	38862.26
584.12	39294.38
584.32	39511.46
584.52	39353.77
584.72	39349.67
584.92	39275.94
585.11	39980.45
585.31	39269.80
585.51	39384.49
585.71	39388.58
585.91	39425.45
586.11	39237.03
586.31	39607.72
586.51	39523.75
586.71	39677.35
586.91	39587.24
587.10	39585.19
587.30	39611.81
587.50	39742.88
587.70	39683.49
587.90	39941.53
588.10	39939.49
588.30	39722.40
588.50	39906.72
588.69	39845.28
588.89	39884.19
589.09	40236.44
589.29	40027.55
589.49	40177.05
589.69	40082.84
589.89	40152.48
590.08	40197.53
590.28	39714.21
590.48	40039.84
590.68	40093.08
590.88	40017.31
591.08	40236.44
591.28	40261.02
591.47	40598.93
591.67	40514.97
591.87	40185.24
592.07	40109.47
592.27	40428.95
592.47	40547.73
592.67	40639.89
592.86	40297.88
593.06	40789.39
593.26	40773.01
593.46	40603.03
593.66	40707.47
593.86	40267.16
594.05	40279.45
594.25	40908.18
594.45	40250.78
594.65	40580.50
594.85	40431.00
595.05	40910.22
595.24	40936.85
595.44	40600.98
595.64	40883.60
595.84	40773.01
596.04	41106.83
596.23	40992.14
596.43	41438.60
596.63	41092.49
596.83	40627.60
597.03	41108.88
597.22	41350.54
597.42	40908.18
597.62	41358.73
597.82	41534.85
598.02	40912.27
598.21	41571.72
598.41	41166.22
598.61	41178.51
598.81	41264.52
599.01	41006.48
599.20	41543.05
599.40	41469.32
599.60	41708.93
599.80	41368.97
600.00	41631.11
600.19	41731.46
600.39	41432.46
600.59	41645.44
600.79	41768.32
600.98	41774.47
601.18	42057.09
601.38	41594.25
601.58	41928.06
601.78	41506.18
601.97	41565.57
602.17	42098.05
602.37	41760.13
602.57	41938.30
602.76	41944.45
602.96	41940.35
603.16	42145.15
603.36	42225.02
603.55	42268.03
603.75	41694.60
603.95	42292.60
604.15	42024.32
604.34	41948.54
604.54	42204.54
604.74	42202.49
604.94	42216.83
605.13	42284.41
605.33	42274.17
605.53	41774.47
605.73	42804.59
605.92	42585.46
606.12	42261.88
606.32	42554.74
606.52	42538.36
606.71	42485.11
606.91	42673.52
607.11	42538.36
607.30	42741.11
607.50	42962.29
607.70	42759.54
607.90	42763.64
608.09	42538.36
608.29	42913.14
608.49	42827.12
608.68	42671.48
608.88	42827.12
609.08	43392.36
609.28	42866.03
609.47	42739.06
609.67	42814.83
609.87	42806.64
610.06	43480.42
610.26	42843.51
610.46	42939.76
610.66	42968.43
610.85	42786.16
611.05	42366.33
611.25	43226.48
611.44	42749.30
611.64	42997.10
611.84	42677.62
612.03	42534.26
612.23	43185.52
612.43	43367.79
612.62	42687.86
612.82	43355.50
613.02	42829.17
613.21	42808.69
613.41	42741.11
613.61	42919.28
613.80	42491.26
614.00	42845.55
614.20	42855.79
614.39	42624.37
614.59	43042.16
614.79	43132.27
614.98	42878.32
615.18	42734.96
615.38	42986.86
615.57	42820.98
615.77	42952.05
615.97	42890.61
616.16	43083.12
616.36	43056.50
616.56	43384.17
616.75	42759.54
616.95	42671.48
617.15	42773.88
617.34	42769.78
617.54	42978.67
617.74	43162.99
617.93	42950.00
618.13	42423.67
618.32	42726.77
618.52	42526.07
618.72	43418.99
618.91	42954.10
619.11	42372.47
619.31	42700.15
619.50	42673.52
619.70	42476.92
619.90	42569.08
620.09	42761.59
620.29	42773.88
620.48	42388.86
620.68	43152.75
620.88	42108.29
621.07	42724.72
621.27	42493.30
621.46	42116.48
621.66	42388.86
621.86	42704.24
622.05	42620.28
622.25	42753.40
622.44	42507.64
622.64	42468.73
622.84	42159.48
623.03	42286.46
623.23	42184.06
623.42	42560.89
623.62	42818.93
623.82	42878.32
624.01	42423.67
624.21	42339.71
624.40	42605.94
624.60	42421.62
624.80	42732.92
624.99	42472.82
625.19	42243.45
625.38	42093.95
625.58	42122.62
625.77	42059.13
625.97	42517.88
626.17	42175.87
626.36	42448.25
626.56	42149.24
626.75	41962.88
626.95	42347.90
627.14	42308.99
627.34	42386.81
627.54	42059.13
627.73	41899.39
627.93	42388.86
628.12	41751.94
628.32	42311.03
628.51	42112.38
628.71	41893.25
628.90	41936.26
629.10	42382.71
629.30	41860.48
629.49	42321.27
629.69	41719.17
629.88	42204.54
630.08	42405.24
630.27	42050.94
630.47	42497.40
630.66	41794.95
630.86	42358.14
631.05	41813.38
631.25	42347.90
631.44	42323.32
631.64	42282.36
631.84	42315.13
632.03	42093.95
632.23	42022.27
632.42	42218.88
632.62	42227.07
632.81	42016.13
633.01	41672.07
633.20	41825.67
633.40	42100.09
633.59	41997.70
633.79	41913.73
633.98	41913.73
634.18	42220.92
634.37	41774.47
634.57	42218.88
634.76	41895.30
634.96	41764.23
635.15	42042.75
635.35	41704.84
635.54	41622.92
635.74	42016.13
635.93	42005.89
636.13	42276.22
636.32	41991.55
636.52	41739.65
636.71	41827.71
636.91	41790.85
637.10	41829.76
637.30	41821.57
637.49	41629.06
637.69	41698.69
637.88	41778.56
638.08	41620.87
638.27	41960.83
638.46	41786.75
638.66	41543.05
638.85	41672.07
639.05	41903.49
639.24	41743.75
639.44	41557.38
639.63	41782.66
639.83	42077.57
640.02	41659.78
640.22	41377.16
640.41	41657.73
640.61	41450.89
640.80	41794.95
640.99	41502.09
641.19	41940.35
641.38	41631.11
641.58	41534.85
641.77	41446.79
641.97	41471.37
642.16	41565.57
642.36	41567.62
642.55	41885.06
642.74	41287.05
642.94	41928.06
643.13	41385.35
643.33	41647.49
643.52	42061.18
643.72	41807.23
643.91	41397.64
644.10	41694.60
644.30	41827.71
644.49	41551.24
644.69	41739.65
644.88	41643.40
645.08	41217.42
645.27	41686.40
645.46	41635.20
645.66	41870.72
645.85	41315.72
646.05	42265.98
646.24	41661.83
646.43	41784.71
646.63	41774.47
646.82	41876.86
647.02	41899.39
647.21	41637.25
647.40	41870.72
647.60	41555.33
647.79	41907.58
647.99	41706.88
648.18	41536.90
648.37	42069.37
648.57	41653.64
648.76	41624.96
648.96	41708.93
649.15	41928.06
649.34	41721.22
649.54	41518.47
649.73	41428.36
649.92	41796.99
650.12	41694.60
650.31	41893.25
650.51	41682.31
650.70	41674.12
650.89	41602.44
651.09	42356.09
651.28	41719.17
651.47	41520.52
651.67	41764.23
651.86	41938.30
652.06	41266.57
652.25	41438.60
652.44	41565.57
652.64	41674.12
652.83	41536.90
653.02	41475.46
653.22	41829.76
653.41	41454.98
653.60	41344.39
653.80	41334.15
653.99	42020.22
654.18	41454.98
654.38	41678.21
654.57	41723.27
654.76	41727.36
654.96	41751.94
655.15	41346.44
655.34	41147.79
655.54	41268.62
655.73	41317.77
655.92	41545.09
656.12	41858.43
656.31	41432.46
656.50	41555.33
656.70	41330.06
656.89	41366.92
657.08	41600.39
657.28	41026.96
657.47	41233.80
657.66	41104.78
657.86	41270.67
658.05	41504.13
658.24	41411.98
658.43	41229.71
658.63	41387.40
658.82	41506.18
659.01	41575.81
659.21	41289.10
659.40	41541.00
659.59	41457.03
659.79	41207.18
659.98	41319.82
660.17	41680.26
660.36	41266.57
660.56	41502.09
660.75	41440.65
660.94	41444.74
661.14	41031.05
661.33	41563.53
661.52	41334.15
661.71	41592.20
661.91	41330.06
662.10	41201.04
662.29	41391.50
662.49	41330.06
662.68	41133.45
662.87	41586.05
663.06	41143.69
663.26	41074.06
663.45	41414.02
663.64	41330.06
663.83	41074.06
664.03	41088.40
664.22	40983.95
664.41	41205.13
664.60	41074.06
664.80	41524.61
664.99	41307.53
665.18	41250.19
665.37	41090.44
665.57	40977.81
665.76	41018.77
665.95	41024.91
666.14	41162.12
666.34	41373.06
666.53	41182.60
666.72	41186.70
666.91	40975.76
667.11	40936.85
667.30	41088.40
667.49	41133.45
667.68	41031.05
667.87	40912.27
668.07	41274.76
668.26	41076.11
668.45	40773.01
668.64	40510.87
668.84	41368.97
669.03	41231.75
669.22	40697.24
669.41	40955.28
669.60	40584.60
669.80	40861.07
669.99	40934.80
670.18	40773.01
670.37	40668.56
670.57	41401.74
670.76	40101.28
670.95	40922.51
671.14	40607.12
671.33	40617.36
671.53	40648.08
671.72	40818.07
671.91	40603.03
672.10	40381.85
672.29	40639.89
672.48	40471.96
672.68	40826.26
672.87	40586.64
673.06	40175.00
673.25	40312.22
673.44	40400.28
673.64	40273.31
673.83	40273.31
674.02	40441.24
674.21	40332.70
674.40	40396.18
674.59	40402.33
674.79	40207.77
674.98	40277.40
675.17	40461.72
675.36	40250.78
675.55	40603.03
675.74	40097.18
675.94	40398.23
676.13	40162.72
676.32	40560.02
676.51	40631.70
676.70	40332.70
676.89	40580.50
677.08	40662.42
677.28	39832.99
677.47	40181.15
677.66	40009.12
677.85	40234.39
678.04	40400.28
678.23	40226.20
678.42	40005.02
678.62	39992.73
678.81	40279.45
679.00	40019.36
679.19	40134.04
679.38	39876.00
679.57	40025.50
679.76	39861.66
679.96	40177.05
680.15	40117.66
680.34	39978.40
680.53	39746.98
680.72	39941.53
680.91	39837.09
681.10	39767.46
681.29	39941.53
681.48	39746.98
681.68	39734.69
681.87	39577.00
682.06	39636.39
682.25	39652.77
682.44	39380.39
682.63	39806.37
682.82	39134.63
683.01	39224.75
683.20	39351.72
683.39	39476.65
683.59	39167.40
683.78	39988.64
683.97	39327.14
684.16	39583.14
684.35	39325.10
684.54	39196.07
684.73	38972.85
684.92	39353.77
685.11	39148.97
685.30	39114.16
685.49	38983.09
685.69	39503.27
685.88	39384.49
686.07	38843.82
686.26	38800.82
686.45	39048.62
686.64	39347.62
686.83	38856.11
687.02	39345.58
687.21	38948.27
687.40	38888.88
687.59	38749.62
687.78	38645.17
687.97	38866.35
688.16	39028.14
688.35	38696.37
688.54	38378.93
688.74	39118.25
688.93	38833.58
689.12	38854.06
689.31	38917.55
689.50	38886.83
689.69	38436.28
689.88	38604.21
690.07	38688.18
690.26	38671.79
690.45	38983.09
690.64	38720.95
690.83	38434.23
691.02	38401.46
691.21	38428.09
691.40	38260.15
691.59	38469.04
691.78	38208.95
691.97	38751.66
692.16	38192.57
692.35	38772.14
692.54	38542.77
692.73	38684.08
692.92	38245.82
693.11	38559.16
693.30	38385.08
693.49	37897.66
693.68	38335.93
693.87	38303.16
694.06	38008.25
694.25	38092.22
694.44	37840.32
694.63	37787.07
694.82	38303.16
695.01	37891.52
695.20	38055.36
695.39	37893.57
695.58	37789.12
695.77	37864.89
695.96	37848.51
696.15	37656.00
696.34	37627.33
696.53	37639.62
696.72	38122.94
696.91	37273.03
697.10	37811.65
697.29	37287.37
697.48	37494.21
697.67	37641.67
697.86	37334.47
698.05	37242.31
698.24	37318.09
698.43	36986.32
698.62	37510.60
698.81	37158.34
699.00	37451.20
699.19	36949.45
699.38	37266.89
699.57	37064.14
699.76	37518.79
699.95	37041.61
700.14	36754.90
700.32	37090.76
700.51	36711.89
700.70	37477.83
700.89	36957.64
701.08	36965.84
701.27	37330.37
701.46	36662.74
701.65	36496.85
701.84	36939.21
702.03	37092.81
702.22	36687.31
702.41	36718.03
702.60	36795.85
702.79	36126.17
702.98	36933.07
703.17	36652.50
703.35	36939.21
703.54	36658.64
703.73	36459.99
703.92	37010.89
704.11	36976.08
704.30	36177.37
704.49	36703.70
704.68	36273.62
704.87	36566.48
705.06	36066.78
705.25	36187.61
705.43	36390.36
705.62	36244.95
705.81	36132.31
706.00	35929.56
706.19	36253.14
706.38	36081.11
706.57	36224.47
706.76	36101.59
706.95	36021.72
707.14	35747.29
707.32	35999.19
707.51	35569.12
707.70	36136.41
707.89	36171.22
708.08	35851.74
708.27	36163.03
708.46	35937.76
708.65	35808.73
708.84	35575.27
709.02	35712.48
709.21	35802.59
709.40	35565.03
709.59	35927.52
709.78	35214.82
709.97	35878.36
710.16	35640.80
710.34	35229.16
710.53	35505.63
710.72	35390.95
710.91	35089.90
711.10	35507.68
711.29	35474.91
711.48	35427.81
711.66	35036.65
711.85	35284.45
712.04	34874.86
712.23	35345.89
712.42	34930.16
712.61	35311.08
712.80	35161.58
712.98	35212.77
713.17	35186.15
713.36	34985.45
713.55	34706.93
713.74	35032.55
713.93	34997.74
714.11	34670.06
714.30	34461.17
714.49	35036.65
714.68	34776.56
714.87	34854.38
715.06	34715.12
715.24	34584.05
715.43	34725.36
715.62	34536.94
715.81	34555.38
716.00	34868.72
716.18	34088.44
716.37	34221.56
716.56	34373.11
716.75	34604.53
716.94	34475.51
717.12	34049.53
717.31	34590.19
717.50	34493.94
717.69	33994.23
717.88	34076.15
718.06	33983.99
718.25	34276.85
718.44	33777.15
718.63	34149.88
718.82	34123.26
719.00	34008.57
719.19	33582.59
719.38	34096.63
719.57	33543.68
719.76	33762.81
719.94	33318.40
720.13	33545.73
720.32	33558.02
720.51	33213.96
720.69	33338.88
720.88	33396.23
721.07	33535.49
721.26	33025.54
721.44	33129.99
721.63	33146.37
721.82	33199.62
722.01	33099.27
722.20	33390.08
722.38	32796.17
722.57	32577.04
722.76	33009.16
722.95	32998.92
723.13	32691.73
723.32	32593.42
723.51	32603.66
723.70	32439.82
723.88	32376.34
724.07	32470.54
724.26	32421.39
724.44	32325.14
724.63	32652.81
724.82	32349.71
725.01	32206.36
725.19	32574.99
725.38	32384.53
725.57	32146.97
725.76	32187.92
725.94	31862.30
726.13	32124.44
726.32	32204.31
726.51	31979.03
726.69	32460.30
726.88	32312.85
727.07	31831.58
727.25	31991.32
727.44	32181.78
727.63	32108.05
727.82	32128.53
728.00	31577.63
728.19	31940.12
728.38	31944.22
728.56	31448.61
728.75	32351.76
728.94	31739.42
729.12	32106.01
729.31	31639.07
729.50	31665.69
729.69	32071.19
729.87	31825.43
730.06	31929.88
730.25	31796.76
730.43	31843.87
730.62	31561.25
730.81	31901.21
730.99	31565.34
731.18	31260.20
731.37	31620.64
731.55	31616.54
731.74	31688.22
731.93	31854.11
732.11	31546.91
732.30	31643.17
732.49	31354.40
732.67	31311.39
732.86	31485.47
733.05	31579.68
733.23	31231.52
733.42	31354.40
733.61	31170.08
733.79	30766.63
733.98	31413.79
734.17	31409.70
734.35	31319.59
734.54	31266.34
734.73	31153.70
734.91	31227.43
735.10	31073.83
735.29	31079.97
735.47	30858.79
735.66	31114.79
735.84	30647.85
736.03	30926.38
736.22	31172.13
736.40	30801.45
736.59	30957.10
736.78	31106.60
736.96	30950.95
737.15	30766.63
737.33	30848.55
737.52	30445.10
737.71	30639.66
737.89	30471.73
738.08	30602.80
738.27	30586.41
738.45	30684.72
738.64	30733.87
738.82	30615.08
739.01	30500.40
739.20	30354.99
739.38	30492.21
739.57	30379.57
739.75	30264.88
739.94	30404.14
740.13	30340.66
740.31	30404.14
740.50	30326.32
740.68	30221.87
740.87	30350.90
741.06	30522.93
741.24	30168.63
741.43	29929.02
741.61	30338.61
741.80	29834.81
741.99	29804.09
742.17	29658.68
742.36	30185.01
742.54	29668.92
742.73	30115.38
742.91	30205.49
743.10	30330.42
743.29	30004.79
743.47	29924.92
743.66	29720.12
743.84	29869.62
744.03	30031.41
744.21	29871.67
744.40	29873.72
744.59	29374.02
744.77	29699.64
744.96	29695.55
745.14	29830.71
745.33	29812.28
745.51	29609.53
745.70	29539.90
745.88	29673.02
746.07	29421.12
746.26	29283.91
746.44	29601.34
746.63	29732.41
746.81	29505.09
747.00	29359.68
747.18	29578.81
747.37	29077.06
747.55	29498.94
747.74	29451.84
747.92	28741.19
748.11	29081.16
748.29	29353.54
748.48	29087.30
748.66	29154.88
748.85	29277.76
749.03	29097.54
749.22	29029.96
749.41	29034.05
749.59	29013.57
749.78	28892.74
749.96	28884.55
750.15	28952.13
750.33	28997.19
750.52	28644.94
750.70	28749.39
750.89	28644.94
751.07	28485.20
751.26	28792.39
751.44	28917.32
751.63	28685.90
751.81	28477.01
752.00	28501.58
752.18	28575.31
752.37	28606.03
752.55	28436.05
752.74	28370.51
752.92	28345.94
753.10	28382.80
753.29	28188.24
753.47	28268.11
753.66	27860.57
753.84	28456.53
754.03	28153.43
754.21	28393.04
754.40	28163.67
754.58	28204.63
754.77	28044.88
754.95	27926.10
755.14	28132.95
755.32	28270.16
755.51	27692.63
755.69	27950.68
755.88	27792.98
756.06	27678.30
756.24	28016.21
756.43	27799.13
756.61	27690.59
756.80	28042.84
756.98	27702.87
757.17	27586.14
757.35	27704.92
757.54	27868.76
757.72	27694.68
757.90	27602.52
758.09	27774.55
758.27	27743.83
758.46	27518.56
758.64	27620.95
758.83	27487.84
759.01	27631.19
759.19	27444.83
759.38	27129.44
759.56	27246.18
759.75	27631.19
759.93	27233.89
760.12	27145.83
760.30	27305.57
760.48	27164.26
760.67	27068.00
760.85	27123.30
761.04	27186.79
761.22	27168.35
761.40	27553.37
761.59	27055.72
761.77	26879.59
761.96	27018.85
762.14	27020.90
762.32	26850.92
762.51	26523.24
762.69	26859.11
762.88	27002.47
763.06	26920.55
763.24	26760.81
763.43	26996.32
763.61	26955.36
763.80	26871.40
763.98	26578.54
764.16	26513.00
764.35	26361.45
764.53	26513.00
764.72	26502.76
764.90	26517.10
765.08	26304.11
765.27	26431.08
765.45	26080.88
765.63	25984.63
765.82	26429.04
766.00	26300.01
766.18	25890.42
766.37	26103.41
766.55	26226.29
766.74	26201.71
766.92	25941.62
767.10	25755.26
767.29	26076.79
767.47	25837.17
767.65	25804.41
767.84	25814.65
768.02	25882.23
768.20	26154.61
768.39	25835.13
768.57	25968.24
768.75	25867.89
768.94	25949.81
769.12	25712.25
769.30	25716.34
769.49	25874.04
769.67	25527.93
769.85	25464.44
770.04	25654.90
770.22	25396.86
770.40	25421.44
770.59	25331.33
770.77	25421.44
770.95	25306.75
771.14	25349.76
771.32	25052.80
771.50	25065.09
771.69	25046.66
771.87	25499.26
772.05	25216.64
772.24	25271.93
772.42	25151.10
772.60	24694.41
772.78	25106.05
772.97	24815.24
773.15	25132.67
773.33	25024.13
773.52	24888.96
773.70	24839.81
773.88	24876.68
774.07	24616.58
774.25	24960.64
774.43	25144.96
774.61	24895.11
774.80	24874.63
774.98	25198.21
775.16	25007.75
775.34	24923.78
775.53	24901.25
775.71	24970.88
775.89	25179.78
776.08	24641.16
776.26	24671.88
776.44	25296.51
776.62	24710.79
776.81	24876.68
776.99	24882.82
777.17	25054.85
777.35	25155.20
777.54	25325.18
777.72	24805.00
777.90	24938.12
778.08	25202.30
778.27	24870.53
778.45	24893.06
778.63	25190.02
778.81	25304.70
779.00	25005.70
779.18	25038.47
779.36	25542.27
779.54	25091.71
779.73	25050.75
779.91	25065.09
780.09	25077.38
780.27	25106.05
780.46	25230.98
780.64	24944.26
780.82	25067.14
781.00	25173.63
781.19	25310.85
781.37	25157.25
781.55	25122.43
781.73	25532.03
781.91	25075.33
782.10	25069.19
782.28	24915.59
782.46	24936.07
782.64	25042.56
782.82	25144.96
783.01	25157.25
783.19	25140.86
783.37	25435.77
783.55	25243.26
783.74	25458.30
783.92	24979.07
784.10	25558.65
784.28	25077.38
784.46	24905.35
784.64	25020.03
784.83	25026.18
785.01	25423.48
785.19	24999.55
785.37	25089.67
785.55	25233.02
785.74	24690.31
785.92	24870.53
786.10	24880.77
786.28	25087.62
786.46	24766.09
786.64	24839.81
786.83	24905.35
787.01	24743.56
787.19	25112.19
787.37	24958.60
787.55	24721.03
787.74	24723.08
787.92	24665.74
788.10	24669.83
788.28	24448.65
788.46	24823.43
788.64	24376.97
788.82	24651.40
789.01	24602.25
789.19	24577.67
789.37	24331.92
789.55	24362.64
789.73	24268.43
789.91	24422.03
790.09	24575.62
790.28	24188.56
790.46	24120.98
790.64	24458.89
790.82	24194.70
791.00	23817.88
791.18	24149.65
791.36	23989.91
791.55	24157.84
791.73	23899.80
791.91	23768.73
792.09	23864.98
792.27	23955.09
792.45	23889.56
792.63	23889.56
792.81	23844.50
793.00	23830.16
793.18	23617.18
793.36	23432.86
793.54	23416.47
793.72	23654.04
793.90	23342.75
794.08	23293.60
794.26	23518.87
794.44	23004.83
794.62	23078.56
794.81	23154.33
794.99	23096.99
795.17	23025.31
795.35	22898.34
795.53	23099.04
795.71	22750.88
795.89	22775.46
796.07	22617.77
796.25	22761.12
796.43	22480.55
796.61	22607.53
796.80	22214.32
796.98	22539.94
797.16	22335.15
797.34	22572.71
797.52	22329.00
797.70	22570.66
797.88	22085.30
798.06	22290.09
798.24	22349.48
798.42	22185.65
798.60	22085.30
798.78	22062.77
798.96	21718.71
799.14	21792.44
799.32	22034.10
799.51	21782.20
799.69	21606.07
799.87	21724.85
800.05	21751.48
800.23	21450.42
800.41	21731.00
800.59	21393.08
800.77	21409.47
800.95	21575.35
801.13	21137.09
801.31	21239.48
801.49	21268.16
801.67	21118.65
801.85	21239.48
802.03	20930.24
802.21	21126.85
802.39	21065.41
802.57	21274.30
802.75	20999.87
802.93	21067.45
803.11	20684.48
803.29	20840.13
803.47	20881.09
803.65	20596.42
803.83	20915.90
804.01	20465.35
804.19	20469.45
804.37	20152.01
804.55	20477.64
804.73	20567.75
804.91	20498.12
805.09	20686.53
805.27	20168.40
805.45	20276.94
805.63	20645.57
805.81	19959.50
805.99	20338.38
806.17	20063.95
806.35	19947.22
806.53	20022.99
806.71	19943.12
806.89	20119.24
807.07	20096.72
807.25	19771.09
807.43	19857.10
807.61	19881.68
807.79	19992.27
807.97	19703.51
808.15	19728.08
808.33	19381.98
808.51	19678.93
808.69	19680.98
808.87	19631.83
809.05	19513.05
809.23	19218.14
809.41	19263.19
809.59	19422.94
809.77	19148.51
809.95	19193.56
810.13	19273.43
810.31	18892.51
810.49	19279.58
810.67	19148.51
810.84	18947.81
811.02	19046.11
811.20	18906.85
811.38	18751.20
811.56	18853.60
811.74	19013.34
811.92	18702.05
812.10	18663.14
812.28	18722.53
812.46	18890.46
812.64	18712.29
812.82	18708.19
813.00	18583.27
813.18	18616.04
813.36	18708.19
813.53	18493.16
813.71	18503.40
813.89	18642.66
814.07	18220.78
814.25	18372.33
814.43	18009.84
814.61	18360.04
814.79	18224.87
814.97	18525.93
815.15	18319.08
815.33	17815.28
815.50	17807.09
815.68	18253.55
815.86	18214.63
816.04	17792.75
816.22	17721.07
816.40	18192.11
816.58	17946.35
816.76	17796.85
816.94	18001.65
817.11	17903.34
817.29	17637.11
817.47	17530.61
817.65	17524.47
817.83	17393.40
818.01	17467.13
818.19	17399.54
818.37	17409.78
818.54	17307.38
818.72	17368.82
818.90	17555.19
819.08	17598.20
819.26	17198.84
819.44	17270.52
819.62	17106.68
819.80	17073.92
819.97	17088.25
820.15	17168.12
820.33	17196.79
820.51	17299.19
820.69	17057.53
820.87	17299.19
821.05	17454.84
821.22	17012.48
821.40	16963.33
821.58	17121.02
821.76	17127.16
821.94	16979.71
822.12	16836.35
822.29	16754.43
822.47	16844.54
822.65	17098.49
822.83	16762.62
823.01	16824.06
823.19	16942.85
823.36	16674.56
823.54	16529.16
823.72	16439.05
823.90	16471.81
824.08	16543.49
824.25	16404.23
824.43	16508.68
824.61	16873.21
824.79	16549.64
824.97	16430.85
825.15	16582.40
825.32	16494.34
825.50	16385.80
825.68	16113.42
825.86	16279.30
826.04	16389.89
826.21	16176.91
826.39	16275.21
826.57	16209.67
826.75	16105.23
826.93	16148.23
827.10	15908.62
827.28	16219.91
827.46	16015.12
827.64	16297.74
827.81	15793.94
827.99	15836.94
828.17	15812.37
828.35	15580.95
828.53	15810.32
828.70	15669.01
828.88	15687.44
829.06	15752.98
829.24	15955.72
829.41	15685.39
829.59	15752.98
829.77	15871.76
829.95	15605.52
830.12	15548.18
830.30	15636.24
830.48	15525.65
830.66	15535.89
830.84	15691.54
831.01	15294.23
831.19	15349.53
831.37	15347.48
831.55	15451.92
831.72	15347.48
831.90	15298.33
832.08	15316.76
832.25	15195.93
832.43	15288.09
832.61	15316.76
832.79	15013.66
832.96	15300.37
833.14	15386.39
833.32	15277.85
833.50	15089.43
833.67	15161.11
833.85	15169.30
834.03	15003.42
834.20	15157.02
834.38	15197.98
834.56	15068.95
834.74	15025.95
834.91	14954.27
835.09	14847.77
835.27	14708.51
835.44	14903.07
835.62	14630.69
835.80	14739.23
835.98	14972.70
836.15	14714.66
836.33	14778.14
836.51	14810.91
836.68	14741.28
836.86	14708.51
837.04	14776.09
837.21	14741.28
837.39	14786.33
837.57	14540.58
837.75	14624.54
837.92	14501.67
838.10	14444.32
838.28	14333.73
838.45	14505.76
838.63	14507.81
838.81	14450.47
838.98	14376.74
839.16	14257.96
839.34	14401.32
839.51	14401.32
839.69	14307.11
839.87	14495.52
840.04	14298.92
840.22	14292.77
840.40	14190.38
840.57	14094.12
840.75	14303.01
840.93	14139.18
841.10	14235.43
841.28	14382.88
841.46	14141.22
841.63	14217.00
841.81	13969.19
841.98	13991.72
842.16	14090.02
842.34	13856.56
842.51	13776.69
842.69	14104.36
842.87	14010.15
843.04	13985.58
843.22	14008.11
843.40	13764.40
843.57	13979.43
843.75	13702.96
843.92	13836.08
844.10	13905.71
844.28	13731.63
844.45	13741.87
844.63	13688.62
844.81	13735.73
844.98	13690.67
845.16	13555.51
845.33	13788.97
845.51	13674.29
845.69	13500.21
845.86	13762.35
846.04	13618.99
846.21	13594.42
846.39	13475.63
846.57	13563.70
846.74	13553.46
846.92	13578.03
847.09	13532.98
847.27	13498.16
847.45	13543.22
847.62	13371.19
847.80	13475.63
847.97	13553.46
848.15	13391.67
848.32	13205.30
848.50	13049.66
848.68	13256.50
848.85	13195.06
849.03	13272.89
849.20	13223.73
849.38	13211.45
849.56	13217.59
849.73	13197.11
849.91	13264.69
850.08	13236.02
850.26	13238.07
850.43	12873.53
850.61	13092.66
850.78	12896.06
850.96	13035.32
851.14	12855.10
851.31	12941.11
851.49	12795.71
851.66	12902.20
851.84	12928.83
852.01	12953.40
852.19	12922.68
852.36	12941.11
852.54	12715.84
852.71	12707.65
852.89	12779.32
853.07	12951.35
853.24	12775.23
853.42	12963.64
853.59	12789.56
853.77	12937.02
853.94	13020.99
854.12	12633.92
854.29	12564.29
854.47	12543.81
854.64	12613.44
854.82	12590.91
854.99	12603.20
855.17	12582.72
855.34	12586.82
855.52	12762.94
855.69	12697.41
855.87	12478.27
856.04	12496.71
856.22	12455.75
856.39	12556.10
856.57	12586.82
856.74	12474.18
856.92	12384.07
857.09	12425.03
857.27	12148.55
857.44	12566.34
857.62	12425.03
857.79	12439.36
857.97	12404.55
858.14	12523.33
858.32	12232.52
858.49	12304.20
858.67	12250.95
858.84	12361.54
859.02	12412.74
859.19	12083.02
859.37	11976.52
859.54	12259.14
859.72	12259.14
859.89	12021.58
860.06	12126.02
860.24	12066.63
860.41	12142.41
860.59	11982.67
860.76	11876.17
860.94	11958.09
861.11	12042.06
861.29	12037.96
861.46	11839.31
861.64	11919.18
861.81	11863.88
861.98	11845.45
862.16	11851.60
862.33	11906.89
862.51	11923.27
862.68	11781.96
862.86	11702.09
863.03	11730.76
863.21	11558.74
863.38	11710.29
863.55	11732.81
863.73	11626.32
863.90	11667.28
864.08	11614.03
864.25	11675.47
864.43	11470.67
864.60	11568.98
864.77	11382.61
864.95	11759.44
865.12	11317.08
865.30	11370.32
865.47	11421.52
865.64	11306.84
865.82	11390.80
865.99	11571.02
866.17	11284.31
866.34	11378.51
866.51	11202.39
866.69	11331.41
866.86	11306.84
867.04	11097.94
867.21	11398.99
867.38	11429.71
867.56	11151.19
867.73	11061.08
867.91	11362.13
868.08	11206.48
868.25	11208.53
868.43	11140.95
868.60	10997.59
868.78	11175.77
868.95	11308.88
869.12	11132.76
869.30	11130.71
869.47	11016.02
869.64	10909.53
869.82	10934.11
869.99	10827.61
870.16	10813.28
870.34	10919.77
870.51	10858.33
870.69	10872.67
870.86	10932.06
871.03	10772.32
871.21	10745.69
871.38	10608.48
871.55	10596.19
871.73	10778.46
871.90	10909.53
872.07	10608.48
872.25	10565.47
872.42	10401.63
872.59	10594.14
872.77	10565.47
872.94	10542.94
873.11	10444.64
873.29	10684.25
873.46	10393.44
873.63	10518.37
873.81	10434.40
873.98	10473.31
874.15	10227.56
874.33	10262.37
874.50	10223.46
874.67	10375.01
874.85	10297.19
875.02	10284.90
875.19	10205.03
875.37	10205.03
875.54	10028.90
875.71	10145.64
875.88	10033.00
876.06	10235.75
876.23	10178.40
876.40	10086.25
876.58	10030.95
876.75	10063.72
876.92	9895.78
877.10	9848.68
877.27	10037.09
877.44	9930.60
877.61	9955.18
877.79	9844.59
877.96	10145.64
878.13	9889.64
878.31	9834.35
878.48	9836.39
878.65	9508.72
878.82	9664.36
879.00	9740.14
879.17	9832.30
879.34	9746.28
879.51	9641.84
879.69	9631.60
879.86	9465.71
880.03	9633.64
880.21	9596.78
880.38	9680.75
880.55	9566.06
880.72	9641.84
880.90	9656.17
881.07	9707.37
881.24	9561.97
881.41	9559.92
881.59	9492.34
881.76	9572.21
881.93	9531.25
882.10	9414.51
882.28	9490.29
882.45	9504.62
882.62	9412.46
882.79	9455.47
882.96	9303.92
883.14	9346.93
883.31	9543.53
883.48	9389.94
883.65	9351.03
883.83	9383.79
884.00	9183.09
884.17	9295.73
884.34	9174.90
884.51	9133.94
884.69	9033.59
884.86	9230.20
885.03	9236.34
885.20	9035.64
885.38	9162.61
885.55	9353.07
885.72	9095.03
885.89	8970.10
886.06	9138.04
886.24	9250.67
886.41	8963.96
886.58	9162.61
886.75	9215.86
886.92	9160.56
887.10	9111.41
887.27	9097.08
887.44	8939.38
887.61	9154.42
887.78	9023.35
887.95	9070.45
888.13	8925.05
888.30	9105.27
888.47	8959.86
888.64	9074.55
888.81	8873.85
888.99	8920.95
889.16	8906.62
889.33	8894.33
889.50	8894.33
889.67	8879.99
889.84	8796.03
890.01	8812.41
890.19	8726.39
890.36	8873.85
890.53	8619.90
890.70	8832.89
890.87	8750.97
891.04	8730.49
891.22	8822.65
891.39	8681.34
891.56	8679.29
891.73	8615.80
891.90	8720.25
892.07	8710.01
892.24	8730.49
892.42	8540.03
892.59	8675.20
892.76	8624.00
892.93	8572.80
893.10	8648.57
893.27	8359.81
893.44	8501.12
893.61	8642.43
893.79	8583.04
893.96	8540.03
894.13	8621.95
894.30	8499.07
894.47	8472.45
894.64	8667.00
894.81	8443.78
894.98	8748.92
895.15	8566.65
895.33	8359.81
895.50	8386.43
895.67	8497.02
895.84	8456.06
896.01	8486.78
896.18	8333.18
896.35	8490.88
896.52	8488.83
896.69	8456.06
896.86	8413.06
897.04	8376.19
897.21	8394.62
897.38	8337.28
897.55	8347.52
897.72	8441.73
897.89	8359.81
898.06	8624.00
898.23	8431.49
898.40	8365.95
898.57	8329.09
898.74	8392.58
898.91	8284.03
899.08	8220.55
899.26	8290.18
899.43	8411.01
899.60	8316.80
899.77	8519.55
899.94	8290.18
900.11	8130.44
900.28	8259.46
900.45	8230.79
900.62	8208.26
900.79	8337.28
900.96	8284.03
901.13	8079.24
901.30	8316.80
901.47	8216.45
901.64	8183.68
901.81	8308.61
901.98	8128.39
902.15	8238.98
902.32	8308.61
902.49	8329.09
902.66	8159.11
902.83	8220.55
903.01	8181.64
903.18	8259.46
903.35	8294.27
903.52	8243.07
903.69	8355.71
903.86	8210.31
904.03	8077.19
904.20	8243.07
904.37	8062.85
904.54	8048.52
904.71	8112.00
904.88	8238.98
905.05	8079.24
905.22	8226.69
905.39	8191.88
905.56	8050.57
905.73	7999.37
905.90	8038.28
906.07	8091.52
906.24	8175.49
906.41	8142.72
906.58	8130.44
906.75	8183.68
906.92	7831.43
907.09	8030.09
907.26	8064.90
907.43	7948.17
907.60	7935.88
907.77	8200.07
907.93	8122.24
908.10	8286.08
908.27	8255.36
908.44	8017.80
908.61	7960.45
908.78	7985.03
908.95	8216.45
909.12	7901.06
909.29	7948.17
909.46	8015.75
909.63	8038.28
909.80	7976.84
909.97	7956.36
910.14	7839.62
910.31	8089.48
910.48	7886.73
910.65	7952.26
910.82	7917.45
910.99	8083.33
911.16	7837.58
911.33	7907.21
911.50	7931.78
911.66	7894.92
911.83	7925.64
912.00	7905.16
912.17	7878.54
912.34	7829.38
912.51	7944.07
912.68	7743.37
912.85	7845.77
913.02	7804.81
913.19	7573.39
913.36	7573.39
913.53	7726.99
913.70	7620.49
913.86	7665.55
914.03	7640.97
914.20	7577.48
914.37	7583.63
914.54	7731.08
914.71	7638.92
914.88	7565.20
915.05	7511.95
915.22	7557.00
915.39	7583.63
915.55	7643.02
915.72	7507.85
915.89	7430.03
916.06	7647.12
916.23	7384.98
916.40	7497.61
916.57	7444.37
916.74	7393.17
916.91	7366.54
917.07	7204.75
917.24	7405.46
917.41	7282.58
917.58	7258.00
917.75	7171.99
917.92	7221.14
918.09	7196.56
918.26	7237.52
918.42	7104.40
918.59	7186.32
918.76	7124.88
918.93	7047.06
919.10	7149.46
919.27	7040.92
919.44	6997.91
919.60	7176.08
919.77	7036.82
919.94	6913.94
920.11	7012.24
920.28	6862.74
920.45	7036.82
920.61	6977.43
920.78	7047.06
920.95	6997.91
921.12	6834.07
921.29	6928.28
921.46	6844.31
921.62	6703.00
921.79	6862.74
921.96	6786.97
922.13	6746.01
922.30	6805.40
922.47	6619.04
922.63	6729.63
922.80	6754.20
922.97	6490.01
923.14	6498.20
923.31	6637.47
923.47	6623.13
923.64	6625.18
923.81	6451.10
923.98	6504.35
924.15	6340.51
924.32	6356.90
924.48	6377.37
924.65	6447.01
924.82	6281.12
924.99	6293.41
925.15	6375.33
925.32	6444.96
925.49	6225.82
925.66	6262.69
925.83	6125.47
925.99	6213.54
926.16	6281.12
926.33	6197.15
926.50	5982.12
926.67	6195.11
926.83	6107.04
927.00	6002.60
927.17	6170.53
927.34	5920.68
927.50	5801.90
927.67	6115.23
927.84	5978.02
928.01	5873.57
928.17	5945.25
928.34	5992.36
928.51	5730.22
928.68	5758.89
928.84	5664.68
929.01	5703.59
929.18	5619.63
929.35	5650.35
929.51	5607.34
929.68	5656.49
929.85	5699.50
930.02	5726.12
930.18	5611.43
930.35	5564.33
930.52	5529.52
930.69	5554.09
930.85	5611.43
931.02	5482.41
931.19	5537.71
931.36	5560.24
931.52	5392.30
931.69	5461.93
931.86	5304.24
932.02	5375.92
932.19	5234.61
932.36	5283.76
932.53	5240.75
932.69	5291.95
932.86	5314.48
933.03	5291.95
933.19	5152.69
933.36	5150.64
933.53	5081.01
933.70	5038.00
933.86	5001.14
934.03	5046.20
934.20	4927.41
934.36	5068.72
934.53	4900.79
934.70	4884.41
934.86	4943.80
935.03	4872.12
935.20	4892.60
935.36	4945.84
935.53	4728.76
935.70	4782.01
935.86	4671.42
936.03	4560.83
936.20	4689.85
936.36	4695.99
936.53	4663.22
936.70	4634.55
936.86	4644.79
937.03	4609.98
937.20	4356.03
937.36	4425.66
937.53	4329.41
937.70	4329.41
937.86	4255.68
938.03	4276.16
938.20	4231.10
938.36	4042.69
938.53	4120.51
938.70	4050.88
938.86	4087.75
939.03	4059.07
939.20	3997.64
939.36	4028.35
939.53	3983.30
939.70	4118.47
939.86	3776.45
940.03	3801.03
940.19	3743.69
940.36	3631.05
940.53	3815.37
940.69	3649.48
940.86	3715.02
941.03	3622.86
941.19	3583.95
941.36	3598.28
941.52	3549.13
941.69	3522.51
941.86	3397.58
942.02	3473.36
942.19	3452.88
942.35	3479.50
942.52	3467.21
942.69	3330.00
942.85	3434.44
943.02	3311.57
943.18	3377.10
943.35	3301.33
943.52	3258.32
943.68	3295.18
943.85	3190.74
944.01	3246.03
944.18	3157.97
944.35	3200.98
944.51	3139.54
944.68	3100.62
944.84	3207.12
945.01	3250.13
945.17	3104.72
945.34	3080.14
945.51	3098.58
945.67	3076.05
945.84	3143.63
946.00	3131.34
946.17	3125.20
946.33	3088.34
946.50	2987.99
946.67	2959.31
946.83	3053.52
947.00	3041.23
947.16	2985.94
947.33	2920.40
947.49	2934.74
947.66	2955.22
947.82	2967.51
947.99	2971.60
948.16	2977.75
948.32	3014.61
948.49	3049.43
948.65	2951.12
948.82	2987.99
948.98	2926.55
949.15	2955.22
949.31	2971.60
949.48	2912.21
949.64	2934.74
949.81	2994.13
949.97	2983.89
950.14	2934.74
950.30	3030.99
950.47	2865.11
950.63	2973.65
950.80	2899.92
950.96	2914.26
951.13	2818.00
951.30	2910.16
951.46	2922.45
951.63	2998.23
951.79	2916.31
951.96	2924.50
952.12	2885.59
952.29	2840.53
952.45	2879.44
952.62	2981.84
952.78	3043.28
952.94	2922.45
953.11	2889.68
953.27	2885.59
953.44	2910.16
953.60	2889.68
953.77	2844.63
953.93	2832.34
954.10	2871.25
954.26	2947.03
954.43	2815.96
954.59	2885.59
954.76	2944.98
954.92	2785.24
955.09	2897.88
955.25	2906.07
955.42	2856.92
955.58	2844.63
955.75	2881.49
955.91	2885.59
956.07	2852.82
956.24	2863.06
956.40	2871.25
956.57	2852.82
956.73	2934.74
956.90	2830.29
957.06	2756.57
957.23	2842.58
957.39	2858.96
957.56	2863.06
957.72	2795.48
957.88	2762.71
958.05	2791.38
958.21	2850.77
958.38	2940.88
958.54	2781.14
958.71	2826.20
958.87	2760.66
959.03	2740.18
959.20	2711.51
959.36	2754.52
959.53	2738.13
959.69	2736.09
959.85	2746.33
960.02	2811.86
960.18	2807.77
960.35	2752.47
960.51	2731.99
960.68	2578.39
960.84	2758.61
961.00	2731.99
961.17	2764.76
961.33	2705.37
961.50	2772.95
961.66	2852.82
961.82	2754.52
961.99	2731.99
962.15	2875.35
962.31	2592.73
962.48	2707.41
962.64	2752.47
962.81	2691.03
962.97	2738.13
963.13	2676.70
963.30	2625.50
963.46	2662.36
963.62	2705.37
963.79	2746.33
963.95	2600.92
964.12	2652.12
964.28	2680.79
964.44	2623.45
964.61	2752.47
964.77	2762.71
964.93	2746.33
965.10	2742.23
965.26	2617.30
965.42	2707.41
965.59	2693.08
965.75	2664.41
965.92	2703.32
966.08	2750.42
966.24	2635.74
966.41	2607.06
966.57	2621.40
966.73	2766.81
966.90	2715.61
967.06	2680.79
967.22	2645.98
967.39	2660.31
967.55	2615.26
967.71	2703.32
967.88	2736.09
968.04	2674.65
968.20	2627.54
968.37	2654.17
968.53	2607.06
968.69	2695.13
968.85	2631.64
969.02	2590.68
969.18	2633.69
969.34	2619.35
969.51	2576.34
969.67	2531.29
969.83	2545.63
970.00	2500.57
970.16	2486.23
970.32	2584.54
970.48	2688.98
970.65	2541.53
970.81	2498.52
970.97	2516.95
971.14	2519.00
971.30	2584.54
971.46	2525.15
971.63	2570.20
971.79	2586.58
971.95	2600.92
972.11	2426.84
972.28	2502.62
972.44	2586.58
972.60	2514.91
972.76	2516.95
972.93	2420.70
973.09	2596.82
973.25	2535.39
973.42	2437.08
973.58	2598.87
973.74	2469.85
973.90	2457.56
974.07	2506.71
974.23	2437.08
974.39	2496.47
974.55	2586.58
974.72	2463.71
974.88	2482.14
975.04	2488.28
975.20	2490.33
975.37	2580.44
975.53	2506.71
975.69	2537.43
975.85	2379.74
976.01	2453.47
976.18	2437.08
976.34	2486.23
976.50	2459.61
976.66	2490.33
976.83	2420.70
976.99	2486.23
977.15	2404.32
977.31	2396.12
977.47	2508.76
977.64	2490.33
977.80	2492.38
977.96	2435.03
978.12	2502.62
978.29	2394.08
978.45	2389.98
978.61	2424.80
978.77	2490.33
978.93	2295.77
979.10	2334.68
979.26	2365.40
979.42	2355.16
979.58	2330.59
979.74	2363.36
979.91	2439.13
980.07	2377.69
980.23	2383.84
980.39	2250.72
980.55	2373.60
980.71	2346.97
980.88	2310.11
981.04	2349.02
981.20	2410.46
981.36	2379.74
981.52	2316.25
981.68	2443.23
981.85	2377.69
982.01	2250.72
982.17	2246.62
982.33	2406.36
982.49	2361.31
982.65	2195.42
982.82	2273.25
982.98	2398.17
983.14	2285.53
983.30	2289.63
983.46	2326.49
983.62	2365.40
983.79	2252.77
983.95	2285.53
984.11	2285.53
984.27	2359.26
984.43	2312.16
984.59	2297.82
984.75	2357.21
984.91	2289.63
985.08	2332.64
985.24	2256.86
985.40	2232.29
985.56	2375.64
985.72	2301.92
985.88	2279.39
986.04	2273.25
986.20	2205.66
986.37	2332.64
986.53	2193.37
986.69	2273.25
986.85	2146.27
987.01	2250.72
987.17	2203.61
987.33	2240.48
987.49	2164.70
987.65	2295.77
987.82	2211.81
987.98	2236.38
988.14	2197.47
988.30	2351.07
988.46	2277.34
988.62	2271.20
988.78	2238.43
988.94	2279.39
989.10	2209.76
989.26	2183.13
989.42	2252.77
989.59	2183.13
989.75	2179.04
989.91	2222.05
990.07	2203.61
990.23	2066.40
990.39	2201.57
990.55	2234.33
990.71	2183.13
990.87	2197.47
991.03	2277.34
991.19	2164.70
991.35	2148.32
991.51	2185.18
991.67	2131.94
991.83	2246.62
992.00	2211.81
992.16	2176.99
992.32	2136.03
992.48	2238.43
992.64	2113.50
992.80	2228.19
992.96	2193.37
993.12	2248.67
993.28	2164.70
993.44	2107.36
993.60	2230.24
993.76	2150.37
993.92	2168.80
994.08	2115.55
994.24	2119.65
994.40	2150.37
994.56	2166.75
994.72	2148.32
994.88	2099.17
995.04	2088.93
995.20	2164.70
995.36	2072.54
995.52	2107.36
995.68	2158.56
995.84	2113.50
996.00	2183.13
996.16	2160.61
996.32	2113.50
996.48	2146.27
996.64	2068.45
996.80	2080.74
996.96	2119.65
997.12	2074.59
997.28	2066.40
997.44	2084.83
997.60	2093.02
997.76	2142.18
997.92	2056.16
998.08	2007.01
998.24	1998.82
998.40	2121.70
998.56	2127.84
998.72	2070.50
998.88	2043.87
999.04	1994.72
999.20	2013.15
999.36	2037.73
999.52	2148.32
999.68	2084.83
999.84	2037.73
1000.00	2011.11
1000.16	2125.79
1000.32	2009.06
1000.48	2058.21
1000.64	2002.91
1000.80	2060.26
1000.95	1992.67
1001.11	1996.77
1001.27	1984.48
1001.43	2095.07
1001.59	2011.11
1001.75	2013.15
1001.91	2019.30
1002.07	2015.20
1002.23	2021.35
1002.39	1961.95
1002.55	1943.52
1002.71	1978.34
1002.87	1968.10
1003.03	1996.77
1003.19	1998.82
1003.34	1970.15
1003.50	1959.91
1003.66	1929.19
1003.82	1951.71
1003.98	1951.71
1004.14	1976.29
1004.30	2002.91
1004.46	1955.81
1004.62	1978.34
1004.78	1984.48
1004.94	2017.25
1005.09	1943.52
1005.25	1964.00
1005.41	2013.15
1005.57	1947.62
1005.73	1955.81
1005.89	2043.87
1006.05	1933.28
1006.21	1994.72
1006.37	1961.95
1006.52	1992.67
1006.68	1945.57
1006.84	2021.35
1007.00	1941.47
1007.16	1978.34
1007.32	1906.66
1007.48	1869.80
1007.64	1906.66
1007.79	1935.33
1007.95	1972.19
1008.11	1961.95
1008.27	1920.99
1008.43	1996.77
1008.59	1941.47
1008.75	1906.66
1008.91	1968.10
1009.06	1888.23
1009.22	1955.81
1009.38	1945.57
1009.54	1939.43
1009.70	1953.76
1009.86	1861.60
1010.01	1961.95
1010.17	1882.08
1010.33	1933.28
1010.49	1947.62
1010.65	1890.28
1010.81	1927.14
1010.96	1900.52
1011.12	1837.03
1011.28	1865.70
1011.44	1875.94
1011.60	1918.95
1011.76	1890.28
1011.91	1916.90
1012.07	1794.02
1012.23	1859.56
1012.39	1865.70
1012.55	1882.08
1012.71	1783.78
1012.86	1920.99
1013.02	1910.75
1013.18	1863.65
1013.34	1882.08
1013.50	1798.12
1013.65	1888.23
1013.81	1837.03
1013.97	1863.65
1014.13	1834.98
1014.29	1869.80
1014.44	1937.38
1014.60	1863.65
1014.76	1787.88
1014.92	1857.51
1015.07	1843.17
1015.23	1814.50
1015.39	1875.94
1015.55	1841.12
1015.71	1890.28
1015.86	1769.44
1016.02	1779.68
1016.18	1839.08
1016.34	1820.64
1016.49	1818.60
1016.65	1869.80
1016.81	1794.02
1016.97	1794.02
1017.12	1812.45
1017.28	1849.32
1017.44	1822.69
1017.60	1730.53
1017.75	1845.22
1017.91	1787.88
1018.07	1791.97
1018.23	1837.03
1018.38	1808.36
1018.54	1751.01
1018.70	1804.26
1018.86	1832.93
1019.01	1822.69
1019.17	1828.84
1019.33	1748.97
1019.49	1796.07
1019.64	1869.80
1019.80	1802.21
1019.96	1769.44
1020.12	1777.64
1020.27	1738.73
1020.43	1882.08
1020.59	1800.16
1020.74	1877.99
1020.90	1843.17
1021.06	1775.59
1021.22	1804.26
1021.37	1763.30
1021.53	1708.01
1021.69	1746.92
1021.84	1765.35
1022.00	1810.40
1022.16	1777.64
1022.31	1779.68
1022.47	1777.64
1022.63	1820.64
1022.79	1748.97
1022.94	1763.30
1023.10	1781.73
1023.26	1753.06
1023.41	1759.21
1023.57	1740.77
1023.73	1816.55
1023.88	1796.07
1024.04	1787.88
1024.20	1734.63
1024.35	1732.58
1024.51	1804.26
1024.67	1673.19
1024.82	1785.83
1024.98	1675.24
1025.14	1822.69
1025.29	1712.10
1025.45	1685.48
1025.61	1757.16
1025.76	1708.01
1025.92	1701.86
1026.08	1759.21
1026.23	1710.05
1026.39	1742.82
1026.55	1728.49
1026.70	1691.62
1026.86	1675.24
1027.02	1693.67
1027.17	1791.97
1027.33	1751.01
1027.48	1720.29
1027.64	1689.57
1027.80	1673.19
1027.95	1759.21
1028.11	1689.57
1028.27	1734.63
1028.42	1761.25
1028.58	1658.85
1028.73	1714.15
1028.89	1693.67
1029.05	1665.00
1029.20	1773.54
>>>>>End Processed Spectral Data<<<<<
