SpectraSuite Data File
++++++++++++++++++++++++++++++++++++
Date: Tue Jun 13 11:58:31 CEST 2017
User: INFO_000
Dark Spectrum Present: No
Reference Spectrum Present: No
Number of Sampled Component Spectra: 1
Spectrometers: USB4H00879
Integration Time (usec): 30000 (USB4H00879)
Spectra Averaged: 1 (USB4H00879)
Boxcar Smoothing: 0 (USB4H00879)
Correct for Electrical Dark: No (USB4H00879)
Strobe/Lamp Enabled: No (USB4H00879)
Correct for Detector Non-linearity: No (USB4H00879)
Correct for Stray Light: No (USB4H00879)
Number of Pixels in Processed Spectrum: 3648
>>>>>Begin Processed Spectral Data<<<<<
345.13	1368.04
345.34	1368.04
345.56	1368.04
345.78	1284.08
345.99	1392.62
346.21	1576.94
346.42	1591.27
346.64	1462.25
346.86	1570.79
347.07	1470.44
347.29	1531.88
347.50	1544.17
347.72	1507.30
347.94	1591.27
348.15	1495.02
348.37	1515.50
348.59	1554.41
348.80	1535.98
349.02	1662.95
349.23	1634.28
349.45	1566.70
349.67	1611.75
349.88	1587.18
350.10	1621.99
350.31	1566.70
350.53	1607.66
350.75	1644.52
350.96	1613.80
351.18	1626.09
351.39	1679.33
351.61	1585.13
351.82	1630.18
352.04	1697.77
352.26	1566.70
352.47	1685.48
352.69	1691.62
352.90	1570.79
353.12	1603.56
353.34	1658.85
353.55	1630.18
353.77	1521.64
353.98	1654.76
354.20	1585.13
354.41	1589.22
354.63	1705.96
354.85	1728.49
355.06	1671.14
355.28	1605.61
355.49	1669.09
355.71	1658.85
355.92	1669.09
356.14	1562.60
356.35	1519.59
356.57	1652.71
356.79	1660.90
357.00	1693.67
357.22	1687.53
357.43	1654.76
357.65	1607.66
357.86	1636.33
358.08	1703.91
358.29	1681.38
358.51	1662.95
358.72	1660.90
358.94	1656.81
359.16	1730.53
359.37	1671.14
359.59	1726.44
359.80	1730.53
360.02	1644.52
360.23	1675.24
360.45	1716.20
360.66	1703.91
360.88	1644.52
361.09	1615.85
361.31	1703.91
361.52	1712.10
361.74	1708.01
361.95	1697.77
362.17	1767.40
362.38	1798.12
362.60	1753.06
362.81	1708.01
363.03	1658.85
363.24	1730.53
363.46	1742.82
363.67	1802.21
363.89	1638.38
364.10	1714.15
364.32	1685.48
364.53	1775.59
364.75	1669.09
364.96	1753.06
365.18	1613.80
365.39	1746.92
365.61	1712.10
365.82	1814.50
366.04	1687.53
366.25	1703.91
366.47	1697.77
366.68	1722.34
366.90	1742.82
367.11	1748.97
367.33	1814.50
367.54	1765.35
367.76	1677.29
367.97	1742.82
368.19	1728.49
368.40	1695.72
368.62	1675.24
368.83	1738.73
369.05	1769.44
369.26	1722.34
369.48	1773.54
369.69	1757.16
369.91	1789.92
370.12	1798.12
370.33	1746.92
370.55	1718.25
370.76	1787.88
370.98	1812.45
371.19	1761.25
371.41	1818.60
371.62	1736.68
371.84	1810.40
372.05	1904.61
372.27	1802.21
372.48	1791.97
372.69	1738.73
372.91	1818.60
373.12	1859.56
373.34	1818.60
373.55	1789.92
373.77	1837.03
373.98	1826.79
374.20	1847.27
374.41	1923.04
374.62	1834.98
374.84	1820.64
375.05	1834.98
375.27	1839.08
375.48	1875.94
375.70	1882.08
375.91	1849.32
376.12	1959.91
376.34	1910.75
376.55	1808.36
376.77	1802.21
376.98	1890.28
377.19	1853.41
377.41	1914.85
377.62	1966.05
377.84	1968.10
378.05	1986.53
378.27	1888.23
378.48	1925.09
378.69	1947.62
378.91	1916.90
379.12	1880.04
379.34	1978.34
379.55	1945.57
379.76	1964.00
379.98	1902.56
380.19	1884.13
380.41	1994.72
380.62	1937.38
380.83	1920.99
381.05	1951.71
381.26	2043.87
381.47	1990.63
381.69	1882.08
381.90	2060.26
382.12	1976.29
382.33	1898.47
382.54	2017.25
382.76	2017.25
382.97	2019.30
383.19	2039.78
383.40	2002.91
383.61	1959.91
383.83	1943.52
384.04	1966.05
384.25	2084.83
384.47	2064.35
384.68	2037.73
384.89	2011.11
385.11	2025.44
385.32	2101.22
385.54	2004.96
385.75	2027.49
385.96	2123.74
386.18	1984.48
386.39	2041.82
386.60	2066.40
386.82	2086.88
387.03	2060.26
387.24	2164.70
387.46	2133.98
387.67	2056.16
387.88	2179.04
388.10	2093.02
388.31	2101.22
388.52	2179.04
388.74	2181.09
388.95	2166.75
389.16	2138.08
389.38	2127.84
389.59	2185.18
389.80	2164.70
390.02	2232.29
390.23	2213.85
390.44	2215.90
390.66	2246.62
390.87	2156.51
391.08	2162.66
391.30	2176.99
391.51	2232.29
391.72	2242.53
391.94	2283.49
392.15	2271.20
392.36	2332.64
392.58	2220.00
392.79	2220.00
393.00	2260.96
393.22	2303.96
393.43	2357.21
393.64	2336.73
393.85	2379.74
394.07	2269.15
394.28	2451.42
394.49	2389.98
394.71	2367.45
394.92	2389.98
395.13	2328.54
395.35	2396.12
395.56	2404.32
395.77	2432.99
395.98	2422.75
396.20	2387.93
396.41	2469.85
396.62	2482.14
396.84	2430.94
397.05	2355.16
397.26	2377.69
397.47	2525.15
397.69	2486.23
397.90	2574.30
398.11	2533.34
398.32	2437.08
398.54	2465.75
398.75	2510.81
398.96	2570.20
399.18	2557.91
399.39	2539.48
399.60	2686.94
399.81	2535.39
400.03	2660.31
400.24	2686.94
400.45	2537.43
400.66	2570.20
400.88	2600.92
401.09	2721.75
401.30	2635.74
401.51	2629.59
401.73	2680.79
401.94	2635.74
402.15	2752.47
402.36	2676.70
402.58	2695.13
402.79	2697.17
403.00	2662.36
403.21	2822.10
403.43	2719.70
403.64	2791.38
403.85	2697.17
404.06	2768.85
404.27	2809.81
404.49	2811.86
404.70	2729.94
404.91	2848.72
405.12	2752.47
405.34	2785.24
405.55	2842.58
405.76	2803.67
405.97	2803.67
406.19	2928.60
406.40	2899.92
406.61	2820.05
406.82	2873.30
407.03	2809.81
407.25	2836.44
407.46	2885.59
407.67	2885.59
407.88	2873.30
408.09	2961.36
408.31	2865.11
408.52	2957.27
408.73	2842.58
408.94	2942.93
409.15	2856.92
409.37	3026.90
409.58	3065.81
409.79	3010.51
410.00	3084.24
410.21	2985.94
410.43	3065.81
410.64	3028.95
410.85	3041.23
411.06	3055.57
411.27	3035.09
411.48	3143.63
411.70	2942.93
411.91	3108.82
412.12	3164.11
412.33	3059.67
412.54	3131.34
412.76	3250.13
412.97	3112.91
413.18	3069.91
413.39	3174.35
413.60	3225.55
413.81	3272.65
414.03	3135.44
414.24	3076.05
414.45	3211.22
414.66	3127.25
414.87	3225.55
415.08	3162.06
415.30	3282.89
415.51	3241.93
415.72	3256.27
415.93	3309.52
416.14	3225.55
416.35	3397.58
416.56	3305.42
416.78	3301.33
416.99	3321.81
417.20	3366.86
417.41	3483.59
417.62	3442.64
417.83	3375.05
418.04	3405.77
418.26	3430.35
418.47	3395.53
418.68	3389.39
418.89	3452.88
419.10	3475.40
419.31	3469.26
419.52	3514.31
419.73	3479.50
419.95	3577.80
420.16	3323.85
420.37	3514.31
420.58	3518.41
420.79	3495.88
421.00	3553.23
421.21	3588.04
421.42	3598.28
421.63	3602.38
421.85	3561.42
422.06	3733.45
422.27	3717.06
422.48	3602.38
422.69	3610.57
422.90	3766.21
423.11	3708.87
423.32	3882.95
423.53	3796.93
423.75	3946.44
423.96	3934.15
424.17	3866.56
424.38	3876.80
424.59	3805.13
424.80	3989.44
425.01	3893.19
425.22	4018.11
425.43	3925.96
425.64	4020.16
425.85	4067.27
426.06	3952.58
426.28	4005.83
426.49	3946.44
426.70	3968.96
426.91	4075.46
427.12	4054.98
427.33	4091.84
427.54	3944.39
427.75	4147.14
427.96	4345.79
428.17	4059.07
428.38	4220.86
428.59	4325.31
428.80	4333.50
429.01	4247.49
429.23	4304.83
429.44	4415.42
429.65	4308.93
429.86	4378.56
430.07	4341.69
430.28	4335.55
430.49	4411.32
430.70	4462.52
430.91	4483.00
431.12	4523.96
431.33	4593.59
431.54	4487.10
431.75	4444.09
431.96	4499.39
432.17	4462.52
432.38	4474.81
432.59	4585.40
432.80	4558.78
433.01	4765.62
433.22	4763.58
433.43	4745.14
433.64	4751.29
433.85	4679.61
434.06	4638.65
434.27	4741.05
434.49	4730.81
434.70	4872.12
434.91	4753.34
435.12	4851.64
435.33	4800.44
435.54	4847.54
435.75	4730.81
435.96	4939.70
436.17	4798.39
436.38	4982.71
436.59	4904.89
436.80	4915.12
437.01	5257.14
437.22	5062.58
437.43	4954.04
437.64	4951.99
437.85	4972.47
438.06	5109.68
438.27	4984.76
438.48	4947.89
438.69	5085.11
438.90	4972.47
439.11	4935.60
439.32	5134.26
439.53	5334.96
439.74	5271.47
439.95	5173.17
440.16	5212.08
440.37	5261.23
440.57	5044.15
440.78	5255.09
440.99	5357.49
441.20	5369.77
441.41	5365.68
441.62	5306.29
441.83	5259.18
442.04	5294.00
442.25	5314.48
442.46	5463.98
442.67	5629.87
442.88	5646.25
443.09	5437.36
443.30	5470.12
443.51	5515.18
443.72	5681.07
443.93	5412.78
444.14	5640.11
444.35	5480.36
444.56	5701.54
444.77	5679.02
444.98	5547.95
445.19	5531.56
445.40	5666.73
445.61	5785.51
445.81	5840.81
446.02	5789.61
446.23	5740.46
446.44	5724.07
446.65	5762.98
446.86	5726.12
447.07	5844.90
447.28	5879.72
447.49	5877.67
447.70	5824.42
447.91	5863.33
448.12	6064.04
448.33	6002.60
448.54	6152.10
448.74	5879.72
448.95	5998.50
449.16	5961.64
449.37	6262.69
449.58	6049.70
449.79	6150.05
450.00	6035.36
450.21	6119.33
450.42	6274.98
450.63	6117.28
450.84	6336.42
451.05	6225.82
451.25	6227.87
451.46	6225.82
451.67	6559.64
451.88	6457.25
452.09	6469.53
452.30	6453.15
452.51	6324.13
452.72	6541.21
452.93	6696.86
453.13	6473.63
453.34	6520.73
453.55	6602.65
453.76	6629.27
453.97	6946.71
454.18	6707.10
454.39	6748.06
454.60	6746.01
454.81	6682.52
455.01	6817.69
455.22	6748.06
455.43	6856.60
455.64	6973.33
455.85	7057.30
456.06	6932.37
456.27	6975.38
456.48	6928.28
456.68	6959.00
456.89	6963.09
457.10	7124.88
457.31	7249.81
457.52	7139.22
457.73	7251.86
457.94	7507.85
458.14	7079.83
458.35	7661.45
458.56	7239.57
458.77	7282.58
458.98	7391.12
459.19	7470.99
459.39	7503.76
459.60	7634.83
459.81	7401.36
460.02	7538.57
460.23	7577.48
460.44	7757.71
460.65	7896.97
460.85	7757.71
461.06	7831.43
461.27	7778.19
461.48	8103.81
461.69	8003.46
461.89	7798.66
462.10	8089.48
462.31	8044.42
462.52	7997.32
462.73	8036.23
462.94	8263.55
463.14	8202.11
463.35	8177.54
463.56	8404.86
463.77	8544.13
463.98	8357.76
464.18	8499.07
464.39	8456.06
464.60	8722.30
464.81	8703.87
465.02	8497.02
465.23	8949.62
465.43	8755.07
465.64	8896.38
465.85	8816.51
466.06	8720.25
466.27	9068.41
466.47	8886.14
466.68	8994.68
466.89	9133.94
467.10	9119.60
467.30	9097.08
467.51	9109.36
467.72	9314.16
467.93	9078.65
468.14	9385.84
468.34	9424.75
468.55	9496.43
468.76	9322.35
468.97	9443.18
469.17	9619.31
469.38	9645.93
469.59	9723.76
469.80	9703.28
470.01	9625.45
470.21	9787.24
470.42	9985.90
470.63	10151.78
470.84	9762.67
471.04	10194.79
471.25	10073.96
471.46	10139.49
471.67	10303.33
471.87	10100.58
472.08	10415.97
472.29	10624.86
472.50	10413.92
472.70	10651.49
472.91	10409.83
473.12	10821.47
473.33	10676.06
473.53	10864.47
473.74	10780.51
473.95	11075.42
474.16	11079.51
474.36	10997.59
474.57	11089.75
474.78	11272.02
474.99	11130.71
475.19	11442.00
475.40	11398.99
475.61	11642.70
475.81	11700.05
476.02	11900.75
476.23	11644.75
476.44	11663.18
476.64	12123.98
476.85	12179.27
477.06	11814.73
477.27	12244.81
477.47	12345.16
477.68	12253.00
477.89	12429.12
478.09	12339.01
478.30	12558.14
478.51	12597.06
478.71	12748.61
478.92	12918.59
479.13	12904.25
479.34	13074.23
479.54	13109.05
479.75	13100.86
479.96	13061.94
480.16	13258.55
480.37	13174.58
480.58	13391.67
480.78	13418.29
480.99	13752.11
481.20	13889.32
481.41	13854.51
481.61	13942.57
481.82	13799.21
482.03	13997.87
482.23	14165.80
482.44	14036.78
482.65	14227.24
482.85	14495.52
483.06	14188.33
483.27	14389.03
483.47	14647.07
483.68	14649.12
483.89	14554.91
484.09	14685.98
484.30	14675.74
484.51	15232.79
484.71	15177.50
484.92	14921.50
485.13	15349.53
485.33	15275.80
485.54	15003.42
485.75	15312.66
485.95	15515.41
486.16	15494.93
486.37	15828.75
486.57	15812.37
486.78	15795.98
486.98	16004.88
487.19	15980.30
487.40	16131.85
487.60	16142.09
487.81	16209.67
488.02	16416.52
488.22	16189.19
488.43	16353.03
488.64	16520.96
488.84	16670.47
489.05	16715.52
489.25	16707.33
489.46	16908.03
489.67	16758.53
489.87	16951.04
490.08	17045.24
490.29	17155.83
490.49	17307.38
490.70	17381.11
490.90	17327.86
491.11	17321.72
491.32	17506.04
491.52	17600.24
491.73	17698.55
491.94	17946.35
492.14	17745.65
492.35	17862.38
492.55	17983.21
492.76	18271.98
492.97	18384.62
493.17	18228.97
493.38	18341.61
493.58	18333.42
493.79	18413.29
494.00	18589.41
494.20	18300.65
494.41	18513.64
494.61	18722.53
494.82	18771.68
495.02	18728.67
495.23	18773.73
495.44	19162.84
495.64	19044.06
495.85	18925.28
496.05	19244.76
496.26	19390.17
496.47	19482.33
496.67	19226.33
496.88	19502.81
497.08	19488.47
497.29	19783.38
497.49	19807.95
497.70	19754.71
497.91	19801.81
498.11	19861.20
498.32	20086.48
498.52	20297.42
498.73	20094.67
498.93	19934.93
499.14	20113.10
499.34	20199.12
499.55	20618.95
499.76	20348.62
499.96	20487.88
500.17	20592.33
500.37	20639.43
500.58	20582.09
500.78	20846.27
500.99	20659.91
501.19	21038.78
501.40	21003.97
501.60	20790.98
501.81	20954.82
502.02	20940.48
502.22	20963.01
502.43	21384.89
502.63	21089.98
502.84	21538.49
503.04	21323.45
503.25	21415.61
503.45	21626.55
503.66	21829.30
503.86	21575.35
504.07	21698.23
504.27	21554.87
504.48	21999.28
504.68	21917.36
504.89	21956.27
505.09	22238.89
505.30	22062.77
505.50	21927.60
505.71	22154.93
505.91	22343.34
506.12	22253.23
506.32	22138.54
506.53	22531.75
506.73	22210.22
506.94	22572.71
507.14	22341.29
507.35	22359.72
507.55	22933.15
507.76	22363.82
507.96	22388.39
508.17	22519.46
508.37	22728.36
508.58	22658.73
508.78	22939.30
508.99	22816.42
509.19	22814.37
509.40	22953.63
509.60	22900.39
509.81	22812.32
510.01	23174.81
510.22	23238.30
510.42	23375.52
510.63	23410.33
510.83	23004.83
511.04	23029.41
511.24	23465.63
511.44	23387.80
511.65	23441.05
511.85	23441.05
512.06	23246.49
512.26	23547.54
512.47	23752.34
512.67	23662.23
512.88	23404.19
513.08	23494.30
513.29	23688.85
513.49	23907.99
513.69	23500.44
513.90	23940.75
514.10	23858.84
514.31	23807.64
514.51	24012.43
514.72	23658.14
514.92	23877.27
515.13	24161.94
515.33	24188.56
515.53	24018.58
515.74	24254.09
515.94	24344.20
516.15	24092.30
516.35	24041.11
516.56	24419.98
516.76	24512.14
516.96	24417.93
517.17	24608.39
517.37	24278.67
517.58	24426.12
517.78	25022.08
517.99	24790.66
518.19	24766.09
518.39	25042.56
518.60	24989.31
518.80	24966.79
519.01	24872.58
519.21	24927.88
519.41	25329.28
519.62	25028.23
519.82	25341.57
520.03	25247.36
520.23	25360.00
520.43	25169.54
520.64	25351.81
520.84	25384.57
521.05	25474.68
521.25	25486.97
521.45	25921.14
521.66	25769.59
521.86	25521.79
522.07	25597.56
522.27	25812.60
522.47	25511.55
522.68	26201.71
522.88	25958.00
523.08	26224.24
523.29	26269.30
523.49	26097.27
523.70	26220.14
523.90	26252.91
524.10	26351.21
524.31	26607.21
524.51	26289.77
524.71	26588.78
524.92	26472.04
525.12	26787.43
525.33	26756.71
525.53	26801.77
525.73	26887.78
525.94	26754.66
526.14	27151.97
526.34	27233.89
526.55	27080.29
526.75	27199.07
526.95	27336.29
527.16	27387.49
527.36	27309.66
527.56	27258.46
527.77	27598.43
527.97	27450.97
528.17	27432.54
528.38	27907.67
528.58	27680.35
528.78	27614.81
528.99	27889.24
529.19	27594.33
529.39	27625.05
529.60	28399.18
529.80	28161.62
530.00	28005.97
530.21	28175.95
530.41	28046.93
530.61	28753.48
530.82	28350.03
531.02	28419.66
531.22	28448.33
531.43	28343.89
531.63	28624.46
531.83	28935.75
532.04	29181.51
532.24	28939.85
532.44	29320.77
532.64	29029.96
532.85	29431.36
533.05	29292.10
533.25	29439.55
533.46	29064.77
533.66	29703.74
533.86	29568.57
534.07	29867.58
534.27	29824.57
534.47	30123.57
534.67	29879.86
534.88	29695.55
535.08	29775.42
535.28	29947.45
535.49	30352.94
535.69	30535.21
535.89	30150.20
536.09	30307.89
536.30	30295.60
536.50	30381.62
536.70	30740.01
536.91	30633.52
537.11	30721.58
537.31	30885.42
537.51	30813.74
537.72	30998.06
537.92	31141.41
538.12	31315.49
538.32	30987.82
538.53	31563.29
538.73	31165.99
538.93	31368.74
539.13	31305.25
539.34	31073.83
539.54	31286.82
539.74	31620.64
539.94	31372.83
540.15	31354.40
540.35	31856.15
540.55	31778.33
540.75	31788.57
540.96	31432.22
541.16	31508.00
541.36	31802.91
541.56	31974.94
541.77	32120.34
541.97	32171.54
542.17	32065.05
542.37	32237.08
542.58	32187.92
542.78	32101.91
542.98	32335.38
543.18	32286.23
543.38	32777.74
543.59	32744.97
543.79	32237.08
543.99	32566.80
544.19	32744.97
544.40	32722.44
544.60	32892.43
544.80	32794.12
545.00	32738.83
545.20	32937.48
545.41	32515.60
545.61	32939.53
545.81	33250.82
546.01	33336.84
546.21	33482.24
546.42	33011.21
546.62	33256.96
546.82	32923.15
547.02	33326.60
547.22	33449.47
547.43	33113.61
547.63	33646.08
547.83	33539.58
548.03	33424.90
548.23	33363.46
548.44	33656.32
548.64	33469.95
548.84	33517.06
549.04	33361.41
549.24	34188.79
549.45	33852.92
549.65	33662.46
549.85	33730.05
550.05	34004.47
550.25	33777.15
550.45	34153.97
550.66	33764.86
550.86	33730.05
551.06	34330.10
551.26	34024.95
551.46	34070.01
551.66	33844.73
551.87	34442.74
552.07	34229.75
552.27	34287.09
552.47	34577.90
552.67	34416.11
552.87	34448.88
553.07	34694.64
553.28	34713.07
553.48	34584.05
553.68	34375.16
553.88	34848.24
554.08	34489.84
554.28	34686.45
554.48	34643.44
554.69	34485.75
554.89	34657.78
555.09	34840.04
555.29	34160.12
555.49	34981.35
555.69	34854.38
555.89	34565.62
556.10	34954.73
556.30	34915.82
556.50	35018.22
556.70	34928.11
556.90	34827.76
557.10	34915.82
557.30	34737.65
557.50	35268.07
557.70	35083.75
557.91	35468.77
558.11	35032.55
558.31	35405.28
558.51	35272.17
558.71	35440.10
558.91	35558.88
559.11	35337.70
559.31	35337.70
559.51	35163.62
559.72	35255.78
559.92	35565.03
560.12	35300.84
560.32	35349.99
560.52	35352.04
560.72	35671.52
560.92	35775.97
561.12	35255.78
561.32	35882.46
561.52	35147.24
561.72	35628.51
561.93	35423.72
562.13	35845.60
562.33	35597.79
562.53	35808.73
562.73	35696.10
562.93	35845.60
563.13	35302.89
563.33	35421.67
563.53	35786.21
563.73	35358.18
563.93	35462.63
564.13	35993.05
564.33	35698.14
564.53	35642.85
564.74	36220.38
564.94	35829.21
565.14	36097.50
565.34	36165.08
565.54	35831.26
565.74	35902.94
565.94	36259.29
566.14	35886.56
566.34	35800.54
566.54	36455.89
566.74	36066.78
566.94	36156.89
567.14	36281.81
567.34	36087.26
567.54	36056.54
567.74	35970.52
567.94	35909.08
568.14	36093.40
568.34	36054.49
568.54	36267.48
568.74	36060.63
568.94	36410.84
569.14	36353.49
569.34	36476.37
569.54	36638.16
569.75	36038.11
569.95	36365.78
570.15	36638.16
570.35	36703.70
570.55	36519.38
570.75	36167.13
570.95	36304.34
571.15	36644.30
571.35	36685.26
571.55	36713.94
571.75	36163.03
571.95	36715.98
572.15	36525.52
572.35	36503.00
572.55	36609.49
572.75	36468.18
572.95	36615.63
573.15	36580.82
573.35	36740.56
573.55	36308.44
573.75	36472.28
573.95	36965.84
574.15	36578.77
574.35	36873.68
574.55	36718.03
574.75	36470.23
574.95	36525.52
575.15	36548.05
575.34	37010.89
575.54	37103.05
575.74	37238.22
575.94	36660.69
576.14	36877.77
576.34	36951.50
576.54	36969.93
576.74	36849.10
576.94	37133.77
577.14	37391.81
577.34	37361.09
577.54	36722.13
577.74	37047.75
577.94	37338.57
578.14	37283.27
578.34	37395.91
578.54	37105.10
578.74	37117.39
578.94	37209.54
579.14	37254.60
579.34	37176.78
579.54	37057.99
579.74	37533.12
579.94	37285.32
580.13	37606.85
580.33	37422.53
580.53	37598.66
580.73	38077.88
580.93	37723.58
581.13	37129.67
581.33	37952.96
581.53	38045.12
581.73	37850.56
581.93	37604.80
582.13	38141.37
582.33	37836.22
582.53	37641.67
582.73	38092.22
582.92	38221.24
583.12	37866.94
583.32	38034.88
583.52	38077.88
583.72	38264.25
583.92	37453.25
584.12	38051.26
584.32	38542.77
584.52	37918.14
584.72	38174.14
584.92	38047.16
585.11	38686.13
585.31	38399.41
585.51	38309.30
585.71	37838.27
585.91	38731.18
586.11	38278.58
586.31	38098.36
586.51	38272.44
586.71	38167.99
586.91	38063.55
587.10	38546.87
587.30	38577.59
587.50	38704.56
587.70	38860.21
587.90	38563.25
588.10	38583.73
588.30	38387.13
588.50	38811.06
588.69	38784.43
588.89	38409.65
589.09	38786.48
589.29	39079.34
589.49	38786.48
589.69	38639.03
589.89	39343.53
590.08	38686.13
590.28	38747.57
590.48	38696.37
590.68	38395.32
590.88	38325.69
591.08	39146.92
591.28	38788.53
591.47	39347.62
591.67	38964.65
591.87	38985.13
592.07	38835.63
592.27	39151.02
592.47	39017.90
592.67	38931.89
592.86	38981.04
593.06	39034.28
593.26	39339.43
593.46	39382.44
593.66	39005.61
593.86	39089.58
594.05	39282.09
594.25	38964.65
594.45	39003.56
594.65	39304.62
594.85	39136.68
595.05	38968.75
595.24	39443.88
595.44	39181.74
595.64	39173.55
595.84	39277.99
596.04	39282.09
596.23	39075.24
596.43	39849.38
596.63	39374.25
596.83	39796.13
597.03	39634.34
597.22	39687.59
597.42	39255.46
597.62	39435.69
597.82	39419.30
598.02	39687.59
598.21	39583.14
598.41	39523.75
598.61	39296.42
598.81	39759.27
599.01	39818.66
599.20	39548.32
599.40	39609.76
599.60	39867.81
599.80	39484.84
600.00	39959.97
600.19	40068.51
600.39	39650.72
600.59	39853.47
600.79	39607.72
600.98	39880.10
601.18	40093.08
601.38	40109.47
601.58	40467.86
601.78	39824.80
601.97	40138.14
602.17	40080.80
602.37	40185.24
602.57	39992.73
602.76	40172.96
602.96	39857.57
603.16	40371.61
603.36	40121.76
603.55	40291.74
603.75	40492.44
603.95	40295.83
604.15	40469.91
604.34	40666.52
604.54	40390.04
604.74	40213.91
604.94	40553.88
605.13	40465.81
605.33	40185.24
605.53	40158.62
605.73	40482.20
605.92	40334.74
606.12	40510.87
606.32	40725.91
606.52	40152.48
606.71	40631.70
606.91	40783.25
607.11	40189.34
607.30	40721.81
607.50	40652.18
607.70	40658.32
607.90	40408.47
608.09	40703.38
608.29	40572.31
608.49	40844.69
608.68	40553.88
608.88	40603.03
609.08	40889.74
609.28	40646.04
609.47	40981.90
609.67	41172.36
609.87	40887.70
610.06	40738.19
610.26	40555.93
610.46	40744.34
610.66	40578.45
610.85	40725.91
611.05	40949.14
611.25	41102.73
611.44	40385.94
611.64	41315.72
611.84	40461.72
612.03	40611.22
612.23	40897.94
612.43	40957.33
612.62	40252.83
612.82	40932.75
613.02	40433.05
613.21	40576.40
613.41	40961.42
613.61	40859.02
613.80	40650.13
614.00	40971.66
614.20	40744.34
614.39	40312.22
614.59	41026.96
614.79	40736.15
614.98	40687.00
615.18	41127.31
615.38	40631.70
615.57	40811.92
615.77	40836.50
615.97	40850.83
616.16	40600.98
616.36	40582.55
616.56	41076.11
616.75	40613.27
616.95	40770.96
617.15	40643.99
617.34	40541.59
617.54	40517.01
617.74	40752.53
617.93	40465.81
618.13	40598.93
618.32	40205.72
618.52	40248.73
618.72	40404.38
618.91	40793.49
619.11	40353.18
619.31	40392.09
619.50	40578.45
619.70	39755.17
619.90	40437.14
620.09	40105.37
620.29	40390.04
620.48	40273.31
620.68	40428.95
620.88	40050.08
621.07	40361.37
621.27	40222.11
621.46	39945.63
621.66	40449.43
621.86	40093.08
622.05	40142.24
622.25	40486.29
622.44	40414.62
622.64	40084.89
622.84	40213.91
623.03	39751.07
623.23	40306.07
623.42	40175.00
623.62	40136.09
623.82	40365.46
624.01	40185.24
624.21	40236.44
624.40	39962.01
624.60	40240.54
624.80	39929.25
624.99	39769.51
625.19	39734.69
625.38	39912.86
625.58	40048.03
625.77	40277.40
625.97	40316.31
626.17	39628.20
626.36	39796.13
626.56	39830.94
626.75	39593.38
626.95	40195.48
627.14	39753.12
627.34	40097.18
627.54	39660.96
627.73	39816.61
627.93	39767.46
628.12	39359.91
628.32	39966.11
628.51	39710.11
628.71	40082.84
628.90	39677.35
629.10	39802.27
629.30	39730.59
629.49	39787.94
629.69	39368.10
629.88	39656.87
630.08	39988.64
630.27	40105.37
630.47	39818.66
630.66	39357.86
630.86	40023.45
631.05	39640.48
631.25	40197.53
631.44	39509.41
631.64	39867.81
631.84	39765.41
632.03	39890.34
632.23	39865.76
632.42	39996.83
632.62	39433.64
632.81	39570.85
633.01	39597.48
633.20	39718.31
633.40	39775.65
633.59	39478.69
633.79	39294.38
633.98	39689.63
634.18	39867.81
634.37	39751.07
634.57	39454.12
634.76	39634.34
634.96	39996.83
635.15	39728.55
635.35	39445.93
635.54	39437.73
635.74	39511.46
635.93	39343.53
636.13	39484.84
636.32	39605.67
636.52	39263.66
636.71	39673.25
636.91	39855.52
637.10	39663.01
637.30	39552.42
637.49	39579.04
637.69	39437.73
637.88	39587.24
638.08	39065.00
638.27	39509.41
638.46	39515.56
638.66	39280.04
638.85	39337.38
639.05	39507.37
639.24	39507.37
639.44	39351.72
639.63	39114.16
639.83	39153.07
640.02	39374.25
640.22	39298.47
640.41	39462.31
640.61	39314.86
640.80	38983.09
640.99	39476.65
641.19	39439.78
641.38	39611.81
641.58	39388.58
641.77	39359.91
641.97	39220.65
642.16	39402.92
642.36	39196.07
642.55	40013.21
642.74	39288.23
642.94	39478.69
643.13	39146.92
643.33	39073.20
643.52	39402.92
643.72	39626.15
643.91	38948.27
644.10	39417.25
644.30	39511.46
644.49	39368.10
644.69	39316.90
644.88	39372.20
645.08	39327.14
645.27	39001.52
645.46	39286.18
645.66	39386.54
645.85	39116.20
646.05	39642.53
646.24	39239.08
646.43	39060.91
646.63	39636.39
646.82	39347.62
647.02	39798.18
647.21	39490.98
647.40	39200.17
647.60	39726.50
647.79	39443.88
647.99	39144.87
648.18	39124.40
648.37	39841.18
648.57	39613.86
648.76	39476.65
648.96	39019.95
649.15	39605.67
649.34	39378.34
649.54	39200.17
649.73	39003.56
649.92	39407.01
650.12	39435.69
650.31	39411.11
650.51	39480.74
650.70	39478.69
650.89	39521.70
651.09	39493.03
651.28	39234.99
651.47	39222.70
651.67	39335.34
651.86	39552.42
652.06	39105.96
652.25	39488.93
652.44	39419.30
652.64	39171.50
652.83	39421.35
653.02	39460.26
653.22	39181.74
653.41	39065.00
653.60	38909.36
653.80	39089.58
653.99	39427.49
654.18	39042.48
654.38	38921.65
654.57	39093.68
654.76	38841.78
654.96	39048.62
655.15	38722.99
655.34	38716.85
655.54	39015.85
655.73	38987.18
655.92	39175.59
656.12	38700.47
656.31	38862.26
656.50	38774.19
656.70	39054.76
656.89	39022.00
657.08	39351.72
657.28	38864.30
657.47	39370.15
657.66	39521.70
657.86	38870.45
658.05	39056.81
658.24	39185.83
658.43	38657.46
658.63	39261.61
658.82	38776.24
659.01	39292.33
659.21	39036.33
659.40	38856.11
659.59	38585.78
659.79	39280.04
659.98	38854.06
660.17	39529.89
660.36	38905.26
660.56	38858.16
660.75	39013.80
660.94	38817.20
661.14	38819.25
661.33	38849.97
661.52	38829.49
661.71	38999.47
661.91	38688.18
662.10	39245.23
662.29	39017.90
662.49	38753.71
662.68	38862.26
662.87	39011.76
663.06	38673.84
663.26	38825.39
663.45	39069.10
663.64	38800.82
663.83	39079.34
664.03	38882.73
664.22	38993.32
664.41	38716.85
664.60	38211.00
664.80	38651.31
664.99	38776.24
665.18	38847.92
665.37	38712.75
665.57	38333.88
665.76	38755.76
665.95	38649.27
666.14	38895.02
666.34	38733.23
666.53	38532.53
666.72	38417.85
666.91	38469.04
667.11	38260.15
667.30	38587.83
667.49	38634.93
667.68	38251.96
667.87	38512.05
668.07	38497.72
668.26	38710.71
668.45	38159.80
668.64	38319.54
668.84	38788.53
669.03	38475.19
669.22	38204.86
669.41	38323.64
669.60	38589.88
669.80	38153.66
669.99	38430.13
670.18	38358.45
670.37	38530.48
670.57	38686.13
670.76	38131.13
670.95	38378.93
671.14	38172.09
671.33	37950.91
671.53	38706.61
671.72	37932.48
671.91	38229.43
672.10	37885.37
672.29	38229.43
672.48	38055.36
672.68	38280.63
672.87	38053.31
673.06	37948.86
673.25	37574.08
673.44	37944.76
673.64	37715.39
673.83	37995.96
674.02	38170.04
674.21	37668.29
674.40	37955.00
674.59	37617.09
674.79	37629.38
674.98	37393.86
675.17	37887.42
675.36	37957.05
675.55	38167.99
675.74	37633.47
675.94	37868.99
676.13	37987.77
676.32	37658.05
676.51	37907.90
676.70	37778.88
676.89	37799.36
677.08	37877.18
677.28	37330.37
677.47	37649.86
677.66	37430.72
677.85	37703.10
678.04	37858.75
678.23	37989.82
678.42	37658.05
678.62	37680.58
678.81	37672.39
679.00	37311.94
679.19	37723.58
679.38	37465.54
679.57	37719.49
679.76	37307.85
679.96	37711.30
680.15	37526.98
680.34	37053.90
680.53	37254.60
680.72	37426.63
680.91	37610.95
681.10	37402.05
681.29	37297.61
681.48	37203.40
681.68	37066.19
681.87	36885.97
682.06	36990.41
682.25	36892.11
682.44	36896.20
682.63	36765.14
682.82	36982.22
683.01	36689.36
683.20	36576.72
683.39	36828.62
683.59	37166.54
683.78	37121.48
683.97	36650.45
684.16	36799.95
684.35	36627.92
684.54	36668.88
684.73	36820.43
684.92	36730.32
685.11	36355.54
685.30	36650.45
685.49	36793.81
685.69	36509.14
685.88	36582.87
686.07	36304.34
686.26	36513.23
686.45	36355.54
686.64	36298.20
686.83	36441.56
687.02	36546.00
687.21	36367.83
687.40	36326.87
687.59	36044.25
687.78	36345.30
687.97	35898.84
688.16	36509.14
688.35	36371.92
688.54	36189.66
688.74	36179.42
688.93	36263.38
689.12	36292.05
689.31	35902.94
689.50	35835.36
689.69	35931.61
689.88	35515.87
690.07	36191.70
690.26	35941.85
690.45	36208.09
690.64	36146.65
690.83	35755.49
691.02	35870.17
691.21	36005.34
691.40	35675.62
691.59	35726.81
691.78	35753.44
691.97	35872.22
692.16	35739.10
692.35	35583.46
692.54	35655.14
692.73	35454.44
692.92	35706.34
693.11	35816.93
693.30	35186.15
693.49	35624.42
693.68	35223.01
693.87	35294.69
694.06	35466.72
694.25	35184.10
694.44	35464.67
694.63	35259.88
694.82	35270.12
695.01	35333.60
695.20	35309.03
695.39	35411.43
695.58	35296.74
695.77	34870.76
695.96	35100.14
696.15	35192.30
696.34	35145.19
696.53	34850.28
696.72	34823.66
696.91	34952.68
697.10	34946.54
697.29	34960.87
697.48	34973.16
697.67	34948.59
697.86	34467.31
698.05	34577.90
698.24	34838.00
698.43	34530.80
698.62	34586.10
698.81	34459.12
699.00	34725.36
699.19	34176.50
699.38	34487.79
699.57	34479.60
699.76	34694.64
699.95	33799.68
700.14	34373.11
700.32	34248.18
700.51	33910.27
700.70	34545.14
700.89	34375.16
701.08	34276.85
701.27	34151.93
701.46	34203.13
701.65	34022.90
701.84	34225.65
702.03	34008.57
702.22	34133.50
702.41	33838.59
702.60	34512.37
702.79	33852.92
702.98	33584.64
703.17	33619.46
703.35	33754.62
703.54	33871.36
703.73	33930.75
703.92	33711.61
704.11	33906.17
704.30	33676.80
704.49	33498.62
704.68	33676.80
704.87	33510.91
705.06	33398.27
705.25	33385.99
705.43	33482.24
705.62	33703.42
705.81	33383.94
706.00	33314.31
706.19	33084.94
706.38	33222.15
706.57	33074.70
706.76	33019.40
706.95	33175.05
707.14	33248.77
707.32	32974.34
707.51	32775.69
707.70	33189.38
707.89	32923.15
708.08	33177.09
708.27	32919.05
708.46	33558.02
708.65	32781.84
708.84	32984.58
709.02	33054.22
709.21	32765.45
709.40	33121.80
709.59	32785.93
709.78	32585.23
709.97	33197.57
710.16	32628.24
710.34	32364.05
710.53	32656.91
710.72	32781.84
710.91	32951.82
711.10	32970.25
711.29	32335.38
711.48	32341.52
711.66	32259.60
711.85	32284.18
712.04	32267.80
712.23	32347.67
712.42	32427.54
712.61	32185.88
712.80	31940.12
712.98	32308.76
713.17	32159.25
713.36	32239.12
713.55	32126.49
713.74	32097.81
713.93	31940.12
714.11	32296.47
714.30	31915.54
714.49	31850.01
714.68	32183.83
714.87	32050.71
715.06	32048.66
715.24	31487.52
715.43	31790.62
715.62	31241.76
715.81	31710.75
716.00	31684.12
716.18	31460.90
716.37	31317.54
716.56	31376.93
716.75	31813.15
716.94	31225.38
717.12	31305.25
717.31	31581.73
717.50	31344.16
717.69	30993.96
717.88	31413.79
718.06	31114.79
718.25	31108.65
718.44	30766.63
718.63	31362.59
718.82	31143.46
719.00	30950.95
719.19	31039.01
719.38	31292.96
719.57	30955.05
719.76	30778.92
719.94	30875.18
720.13	30531.12
720.32	30594.61
720.51	30594.61
720.69	30690.86
720.88	30330.42
721.07	30871.08
721.26	30256.69
721.44	30064.18
721.63	29978.17
721.82	29855.29
722.01	30103.09
722.20	30363.18
722.38	30080.56
722.57	30047.80
722.76	30133.81
722.95	30072.37
723.13	29902.39
723.32	29980.21
723.51	29806.14
723.70	29584.96
723.88	29562.43
724.07	29660.73
724.26	29742.65
724.44	29185.60
724.63	29466.17
724.82	29677.12
725.01	29668.92
725.19	29240.90
725.38	29662.78
725.57	29687.36
725.76	29331.01
725.94	29390.40
726.13	29115.97
726.32	29206.08
726.51	29238.85
726.69	29281.86
726.88	29062.72
727.07	29271.62
727.25	29267.52
727.44	29156.93
727.63	29118.02
727.82	29167.17
728.00	29122.12
728.19	29046.34
728.38	29210.18
728.56	28956.23
728.75	29359.68
728.94	28954.18
729.12	29195.84
729.31	28862.02
729.50	28747.34
729.69	28784.20
729.87	28896.84
730.06	28986.95
730.25	29046.34
730.43	29136.45
730.62	29077.06
730.81	28806.73
730.99	28618.32
731.18	28638.80
731.37	28780.10
731.55	28751.43
731.74	28884.55
731.93	28927.56
732.11	28583.50
732.30	28585.55
732.49	28388.94
732.67	28855.88
732.86	28483.15
733.05	28603.98
733.23	28155.47
733.42	28440.14
733.61	28341.84
733.79	28481.10
733.98	28479.05
734.17	28290.64
734.35	28071.51
734.54	28178.00
734.73	28229.20
734.91	28190.29
735.10	27895.38
735.29	28268.11
735.47	27907.67
735.66	28268.11
735.84	27993.68
736.03	27874.90
736.22	28233.30
736.40	28046.93
736.59	28085.84
736.78	27842.14
736.96	27725.40
737.15	28034.64
737.33	28018.26
737.52	27776.60
737.71	28016.21
737.89	27700.83
738.08	27799.13
738.27	27575.90
738.45	27987.54
738.64	27952.73
738.82	27663.96
739.01	27672.15
739.20	27655.77
739.38	27786.84
739.57	27745.88
739.75	27674.20
739.94	27356.77
740.13	27647.58
740.31	27375.20
740.50	27625.05
740.68	27612.76
740.87	27700.83
741.06	27442.78
741.24	27207.26
741.43	27326.05
741.61	27446.88
741.80	26865.25
741.99	27199.07
742.17	27088.48
742.36	27379.29
742.54	27174.50
742.73	27111.01
742.91	27125.35
743.10	27188.83
743.29	27237.98
743.47	27317.86
743.66	27227.74
743.84	26842.73
744.03	27352.67
744.21	26709.61
744.40	27121.25
744.59	27035.24
744.77	26709.61
744.96	26990.18
745.14	27131.49
745.33	26513.00
745.51	26680.94
745.70	26945.12
745.88	26689.13
746.07	26723.94
746.26	26373.74
746.44	26666.60
746.63	26494.57
746.81	26377.84
747.00	26201.71
747.18	26523.24
747.37	26574.44
747.55	26416.75
747.74	26447.47
747.92	26490.48
748.11	26576.49
748.29	26265.20
748.48	26744.42
748.66	26267.25
748.85	26199.66
749.03	26326.64
749.22	26472.04
749.41	26037.87
749.59	26287.73
749.78	26347.12
749.96	26035.83
750.15	25851.51
750.33	26015.35
750.52	26259.06
750.70	25912.95
750.89	26027.63
751.07	25833.08
751.26	25890.42
751.44	25603.71
751.63	25929.33
751.81	25865.85
752.00	25677.43
752.18	26031.73
752.37	26152.56
752.55	25613.95
752.74	25650.81
752.92	25620.09
753.10	25468.54
753.29	25640.57
753.47	25874.04
753.66	25323.13
753.84	25781.88
754.03	25325.18
754.21	25388.67
754.40	25708.15
754.58	25413.24
754.77	25343.61
754.95	24993.41
755.14	25357.95
755.32	25423.48
755.51	25343.61
755.69	25099.90
755.88	25349.76
756.06	25429.63
756.24	25052.80
756.43	25046.66
756.61	25046.66
756.80	25056.90
756.98	25173.63
757.17	25276.03
757.35	25046.66
757.54	24759.94
757.72	25429.63
757.90	25104.00
758.09	25030.27
758.27	24823.43
758.46	25058.95
758.64	24934.02
758.83	24786.57
759.01	25218.69
759.19	24831.62
759.38	24841.86
759.56	24931.97
759.75	24850.05
759.93	24675.98
760.12	24389.26
760.30	24954.50
760.48	24678.02
760.67	24487.56
760.85	24755.85
761.04	24557.19
761.22	24604.30
761.40	24301.20
761.59	24301.20
761.77	24465.03
761.96	24503.95
762.14	24274.57
762.32	24415.88
762.51	24436.36
762.69	24258.19
762.88	24282.77
763.06	24383.12
763.24	24419.98
763.43	24055.44
763.61	23826.07
763.80	24088.21
763.98	23910.04
764.16	24178.32
764.35	23950.99
764.53	23551.64
764.72	24096.40
764.90	24075.92
765.08	23897.75
765.27	23830.16
765.45	23844.50
765.63	23490.20
765.82	23633.56
766.00	23705.24
766.18	23819.92
766.37	23930.51
766.55	23711.38
766.74	23887.51
766.92	23738.01
767.10	23672.47
767.29	23592.60
767.47	23457.43
767.65	23852.69
767.84	23684.76
768.02	23572.12
768.20	23217.82
768.39	23479.96
768.57	23404.19
768.75	23371.42
768.94	23289.50
769.12	23416.47
769.30	23119.52
769.49	23178.91
769.67	23377.56
769.85	23238.30
770.04	23062.18
770.22	23019.17
770.40	22630.05
770.59	22849.19
770.77	22998.69
770.95	22972.07
771.14	22654.63
771.32	22855.33
771.50	22896.29
771.69	22507.18
771.87	23215.77
772.05	22820.52
772.24	22617.77
772.42	22752.93
772.60	22785.70
772.78	22406.83
772.97	22437.55
773.15	22640.29
773.33	22529.70
773.52	22298.28
773.70	22718.12
773.88	22662.82
774.07	22560.42
774.25	22697.64
774.43	22562.47
774.61	22576.81
774.80	22697.64
774.98	22410.92
775.16	22820.52
775.34	22564.52
775.53	22451.88
775.71	22621.86
775.89	22521.51
776.08	22673.06
776.26	22509.22
776.44	22617.77
776.62	22539.94
776.81	22324.91
776.99	22574.76
777.17	22294.19
777.35	22318.76
777.54	22558.38
777.72	22374.06
777.90	22566.57
778.08	22646.44
778.27	22427.31
778.45	22734.50
778.63	23053.98
778.81	22808.23
779.00	22812.32
779.18	22517.42
779.36	22642.34
779.54	22593.19
779.73	22644.39
779.91	23127.71
780.09	22681.25
780.27	22568.62
780.46	22916.77
780.64	22841.00
780.82	22535.85
781.00	22759.08
781.19	22648.49
781.37	22673.06
781.55	22777.51
781.73	23023.26
781.91	22875.81
782.10	22732.45
782.28	22816.42
782.46	22722.21
782.64	22984.35
782.82	22656.68
783.01	22920.87
783.19	22853.28
783.37	22871.72
783.55	22693.54
783.74	22947.49
783.92	22820.52
784.10	22824.61
784.28	22970.02
784.46	22605.48
784.64	22763.17
784.83	22738.60
785.01	22740.64
785.19	22808.23
785.37	22498.98
785.55	22650.53
785.74	22466.22
785.92	22394.54
786.10	22572.71
786.28	22572.71
786.46	22580.90
786.64	22390.44
786.83	22470.31
787.01	22431.40
787.19	22646.44
787.37	22853.28
787.55	22605.48
787.74	22324.91
787.92	22261.42
788.10	22388.39
788.28	22140.59
788.46	22087.34
788.64	22152.88
788.82	22228.65
789.01	22208.17
789.19	22341.29
789.37	22064.82
789.55	22406.83
789.73	22040.24
789.91	22195.89
790.09	21905.07
790.28	21757.62
790.46	21800.63
790.64	21747.38
790.82	22056.62
791.00	21548.73
791.18	21477.05
791.36	21771.96
791.55	21612.21
791.73	21808.82
791.91	21628.60
792.09	21577.40
792.27	21567.16
792.45	21419.71
792.63	21829.30
792.81	21313.21
793.00	21462.71
793.18	21376.70
793.36	21325.50
793.54	21401.27
793.72	21307.07
793.90	20995.78
794.08	21006.02
794.26	21165.76
794.44	21157.57
794.62	20928.19
794.81	21008.06
794.99	21006.02
795.17	20588.23
795.35	21042.88
795.53	20977.34
795.71	21016.26
795.89	20496.07
796.07	20680.39
796.25	20504.26
796.43	20315.85
796.61	20610.76
796.80	20328.14
796.98	20528.84
797.16	20545.22
797.34	20186.83
797.52	20362.95
797.70	20485.83
797.88	20401.86
798.06	20057.81
798.24	20391.62
798.42	19910.35
798.60	20125.39
798.78	20055.76
798.96	19979.98
799.14	19803.86
799.32	19957.46
799.51	19701.46
799.69	19599.06
799.87	19738.32
800.05	19900.11
800.23	19689.17
800.41	19545.81
800.59	19463.90
800.77	19255.00
800.95	19277.53
801.13	19343.06
801.31	19490.52
801.49	19488.47
801.67	19246.81
801.85	19422.94
802.03	19119.84
802.21	19097.31
802.39	19007.20
802.57	18964.19
802.75	19009.25
802.93	18976.48
803.11	18874.08
803.29	19042.01
803.47	18923.23
803.65	18929.38
803.83	18538.21
804.01	18814.69
804.19	18669.28
804.37	18650.85
804.55	18933.47
804.73	18716.39
804.91	18323.18
805.09	18622.18
805.27	18321.13
805.45	18286.31
805.63	18351.85
805.81	18405.10
805.99	18310.89
806.17	18417.38
806.35	18165.48
806.53	18239.21
806.71	18163.43
806.89	18269.93
807.07	18122.48
807.25	17889.01
807.43	18036.46
807.61	17948.40
807.79	17782.51
807.97	17856.24
808.15	17643.25
808.33	18001.65
808.51	17633.01
808.69	18013.93
808.87	17850.10
809.05	17751.79
809.23	17528.56
809.41	17577.72
809.59	17374.97
809.77	17526.52
809.95	17417.97
810.13	17714.93
810.31	17362.68
810.49	17327.86
810.67	17293.05
810.84	17215.23
811.02	17186.55
811.20	17082.11
811.38	17233.66
811.56	16975.61
811.74	17299.19
811.92	17190.65
812.10	16987.90
812.28	17319.67
812.46	17196.79
812.64	17078.01
812.82	16869.12
813.00	16817.92
813.18	16910.08
813.36	16701.19
813.53	16846.59
813.71	16717.57
813.89	16641.79
814.07	16783.10
814.25	16760.58
814.43	16684.80
814.61	16711.42
814.79	16437.00
814.97	16412.42
815.15	16838.40
815.33	16547.59
815.50	16447.24
815.68	16492.29
815.86	16535.30
816.04	16342.79
816.22	16473.86
816.40	15992.59
816.58	16203.53
816.76	16330.50
816.94	16254.73
817.11	16107.27
817.29	16090.89
817.47	16004.88
817.65	15992.59
817.83	15970.06
818.01	15861.52
818.19	15630.10
818.37	15593.23
818.54	15669.01
818.72	15818.51
818.90	15959.82
819.08	15855.37
819.26	15648.53
819.44	15589.14
819.62	15802.13
819.80	15800.08
819.97	15650.58
820.15	15603.47
820.33	15671.06
820.51	15836.94
820.69	15105.82
820.87	15490.84
821.05	15595.28
821.22	15507.22
821.40	15587.09
821.58	15517.46
821.76	15421.20
821.94	15259.42
822.12	15165.21
822.29	15394.58
822.47	14980.89
822.65	15413.01
822.83	15359.77
823.01	15337.24
823.19	15181.59
823.36	15146.78
823.54	15189.78
823.72	15259.42
823.90	15187.74
824.08	14915.36
824.25	14944.03
824.43	14878.49
824.61	14845.73
824.79	15124.25
824.97	14796.57
825.15	14980.89
825.32	14821.15
825.50	14829.34
825.68	14798.62
825.86	14778.14
826.04	14667.55
826.21	14569.25
826.39	14747.42
826.57	14655.26
826.75	14610.21
826.93	14282.53
827.10	14589.73
827.28	14597.92
827.46	14497.57
827.64	14356.26
827.81	14212.90
827.99	14405.41
828.17	14391.08
828.35	14274.34
828.53	14563.11
828.70	14405.41
828.88	14237.48
829.06	14300.97
829.24	14346.02
829.41	14229.29
829.59	14337.83
829.77	14251.81
829.95	14262.05
830.12	14206.76
830.30	13930.28
830.48	14100.26
830.66	14223.14
830.84	14255.91
831.01	14036.78
831.19	14006.06
831.37	13889.32
831.55	13946.67
831.72	13979.43
831.90	14044.97
832.08	13924.14
832.25	13924.14
832.43	13887.28
832.61	13795.12
832.79	13686.58
832.96	13958.96
833.14	13928.24
833.32	13903.66
833.50	14022.44
833.67	13764.40
833.85	13719.34
834.03	13524.79
834.20	13766.45
834.38	13580.08
834.56	13874.99
834.74	13389.62
834.91	13418.29
835.09	13709.10
835.27	13352.76
835.44	13502.26
835.62	13358.90
835.80	13434.68
835.98	13373.24
836.15	13391.67
836.33	13315.89
836.51	13391.67
836.68	13315.89
836.86	13410.10
837.04	13297.46
837.21	13102.90
837.39	13182.77
837.57	13242.17
837.75	13328.18
837.92	13262.65
838.10	13242.17
838.28	13041.46
838.45	13233.97
838.63	12988.22
838.81	13068.09
838.98	13133.62
839.16	13023.03
839.34	12791.61
839.51	13016.89
839.69	12773.18
839.87	13057.85
840.04	12924.73
840.22	12963.64
840.40	12869.44
840.57	12715.84
840.75	12855.10
840.93	12658.49
841.10	12783.42
841.28	12879.68
841.46	12859.20
841.63	12844.86
841.81	12670.78
841.98	12773.18
842.16	12773.18
842.34	12572.48
842.51	12422.98
842.69	12879.68
842.87	12629.82
843.04	12599.10
843.22	12687.17
843.40	12599.10
843.57	12554.05
843.75	12410.69
843.92	12572.48
844.10	12398.40
844.28	12472.13
844.45	12554.05
844.63	12490.56
844.81	12209.99
844.98	12343.11
845.16	12265.28
845.33	12549.95
845.51	12336.96
845.69	12312.39
845.86	12279.62
846.04	12060.49
846.21	12156.74
846.39	12181.32
846.57	12205.89
846.74	12402.50
846.92	12267.33
847.09	12162.89
847.27	12148.55
847.45	12332.87
847.62	12031.82
847.80	12134.21
847.97	12177.22
848.15	12029.77
848.32	12119.88
848.50	12058.44
848.68	11976.52
848.85	11986.76
849.03	11892.55
849.20	12244.81
849.38	12064.58
849.56	11964.23
849.73	11822.92
849.91	11908.94
850.08	12099.40
850.26	11859.79
850.43	12052.30
850.61	12113.74
850.78	11665.23
850.96	11788.11
851.14	11745.10
851.31	11919.18
851.49	11644.75
851.66	11777.87
851.84	11884.36
852.01	11845.45
852.19	11503.44
852.36	11648.85
852.54	11677.52
852.71	11595.60
852.89	11657.04
853.07	11460.43
853.24	11558.74
853.42	11663.18
853.59	11659.09
853.77	11560.78
853.94	11497.30
854.12	11370.32
854.29	11294.55
854.47	11435.86
854.64	11568.98
854.82	11351.89
854.99	11392.85
855.17	11231.06
855.34	11284.31
855.52	11337.56
855.69	11343.70
855.87	11439.95
856.04	11306.84
856.22	11331.41
856.39	11214.68
856.57	11261.78
856.74	11020.12
856.92	11437.91
857.09	11112.28
857.27	11007.83
857.44	11272.02
857.62	11249.49
857.79	11294.55
857.97	11124.57
858.14	11202.39
858.32	10966.87
858.49	11110.23
858.67	11181.91
858.84	10962.78
859.02	10862.43
859.19	10944.34
859.37	10862.43
859.54	10805.08
859.72	10774.36
859.89	10927.96
860.06	10921.82
860.24	10901.34
860.41	10800.99
860.59	10862.43
860.76	10788.70
860.94	10733.40
861.11	10757.98
861.29	10735.45
861.46	10755.93
861.64	10606.43
861.81	10645.34
861.98	10843.99
862.16	10669.92
862.33	10731.36
862.51	10678.11
862.68	10473.31
862.86	10647.39
863.03	10602.33
863.21	10559.33
863.38	10559.33
863.55	10661.73
863.73	10463.07
863.90	10555.23
864.08	10551.14
864.25	10487.65
864.43	10438.50
864.60	10473.31
864.77	10313.57
864.95	10297.19
865.12	10389.35
865.30	10379.11
865.47	10159.97
865.64	10409.83
865.82	10329.95
865.99	10450.78
866.17	10155.88
866.34	10153.83
866.51	10266.47
866.69	10207.08
866.86	10264.42
867.04	10211.17
867.21	10123.11
867.38	10125.16
867.56	10258.28
867.73	10030.95
867.91	10041.19
868.08	10133.35
868.25	10153.83
868.43	10151.78
868.60	9977.70
868.78	9936.74
868.95	10155.88
869.12	9973.61
869.30	10084.20
869.47	9891.69
869.64	9801.58
869.82	9846.63
869.99	9805.67
870.16	10006.38
870.34	9881.45
870.51	9848.68
870.69	9899.88
870.86	9742.19
871.03	9854.83
871.21	9838.44
871.38	9719.66
871.55	9623.41
871.73	9703.28
871.90	9676.65
872.07	9541.49
872.25	9330.55
872.42	9537.39
872.59	9602.93
872.77	9490.29
872.94	9312.11
873.11	9385.84
873.29	9561.97
873.46	9396.08
873.63	9168.76
873.81	9514.86
873.98	9367.41
874.15	9217.91
874.33	9351.03
874.50	9135.99
874.67	9131.89
874.85	9260.91
875.02	9246.58
875.19	9113.46
875.37	9222.00
875.54	9183.09
875.71	9295.73
875.88	9334.64
876.06	9138.04
876.23	9054.07
876.40	9047.93
876.58	9072.50
876.75	8990.58
876.92	9138.04
877.10	8890.23
877.27	9025.40
877.44	8984.44
877.61	8832.89
877.79	8886.14
877.96	8939.38
878.13	8884.09
878.31	8716.16
878.48	8771.45
878.65	8675.20
878.82	8736.63
879.00	8773.50
879.17	8781.69
879.34	8669.05
879.51	8935.29
879.69	8773.50
879.86	8798.07
880.03	8861.56
880.21	8646.52
880.38	8636.28
880.55	8466.30
880.72	8621.95
880.90	8732.54
881.07	8478.59
881.24	8671.10
881.41	8664.96
881.59	8572.80
881.76	8628.09
881.93	8669.05
882.10	8470.40
882.28	8333.18
882.45	8583.04
882.62	8619.90
882.79	8456.06
882.96	8316.80
883.14	8382.34
883.31	8302.47
883.48	8458.11
883.65	8392.58
883.83	8294.27
884.00	8355.71
884.17	8386.43
884.34	8210.31
884.51	8345.47
884.69	8269.70
884.86	8537.98
885.03	8193.92
885.20	8173.44
885.38	8245.12
885.55	8269.70
885.72	8032.13
885.89	8181.64
886.06	8275.84
886.24	8290.18
886.41	8118.15
886.58	8204.16
886.75	8302.47
886.92	8146.82
887.10	8236.93
887.27	8122.24
887.44	8300.42
887.61	8218.50
887.78	8128.39
887.95	8292.23
888.13	7894.92
888.30	8089.48
888.47	8236.93
888.64	7942.02
888.81	8167.30
888.99	7937.93
889.16	8103.81
889.33	7958.41
889.50	7937.93
889.67	7755.66
889.84	7790.47
890.01	7890.82
890.19	7847.82
890.36	7890.82
890.53	7894.92
890.70	7870.34
890.87	7839.62
891.04	7860.10
891.22	7788.43
891.39	7892.87
891.56	7675.79
891.73	7739.27
891.90	7876.49
892.07	7778.19
892.24	7880.58
892.42	7610.25
892.59	7757.71
892.76	7675.79
892.93	7667.60
893.10	7780.23
893.27	7686.03
893.44	7526.29
893.61	7712.65
893.79	7726.99
893.96	7597.96
894.13	7821.19
894.30	7616.40
894.47	7571.34
894.64	7688.07
894.81	7569.29
894.98	7622.54
895.15	7587.72
895.33	7618.44
895.50	7700.36
895.67	7630.73
895.84	7448.46
896.01	7530.38
896.18	7534.48
896.35	7622.54
896.52	7507.85
896.69	7577.48
896.86	7690.12
897.04	7493.52
897.21	7692.17
897.38	7524.24
897.55	7454.61
897.72	7503.76
897.89	7587.72
898.06	7485.33
898.23	7442.32
898.40	7540.62
898.57	7456.65
898.74	7569.29
898.91	7487.37
899.08	7505.81
899.26	7479.18
899.43	7702.41
899.60	7628.68
899.77	7391.12
899.94	7393.17
900.11	7346.06
900.28	7483.28
900.45	7430.03
900.62	7217.04
900.79	7544.72
900.96	7245.71
901.13	7315.34
901.30	7368.59
901.47	7354.26
901.64	7407.50
901.81	7284.62
901.98	7251.86
902.15	7378.83
902.32	7319.44
902.49	7229.33
902.66	7292.82
902.83	7247.76
903.01	7223.19
903.18	7210.90
903.35	7305.10
903.52	7208.85
903.69	7333.78
903.86	7413.65
904.03	7432.08
904.20	7344.02
904.37	7311.25
904.54	7227.28
904.71	7321.49
904.88	7378.83
905.05	7219.09
905.22	7315.34
905.39	7327.63
905.56	7194.51
905.73	7305.10
905.90	7221.14
906.07	7286.67
906.24	7307.15
906.41	7217.04
906.58	7219.09
906.75	7200.66
906.92	7202.71
907.09	7135.12
907.26	7174.03
907.43	7217.04
907.60	7227.28
907.77	7358.35
907.93	7202.71
908.10	7325.58
908.27	7186.32
908.44	6983.57
908.61	6961.05
908.78	7120.79
908.95	7022.48
909.12	7223.19
909.29	7243.67
909.46	6961.05
909.63	7120.79
909.80	7092.12
909.97	6946.71
910.14	7079.83
910.31	6995.86
910.48	7294.86
910.65	7059.35
910.82	6969.24
910.99	7012.24
911.16	7112.60
911.33	7114.64
911.50	7006.10
911.66	7026.58
911.83	7006.10
912.00	7012.24
912.17	6922.13
912.34	6959.00
912.51	6864.79
912.68	6856.60
912.85	6877.08
913.02	6959.00
913.19	6887.32
913.36	6793.11
913.53	6834.07
913.70	6801.30
913.86	6858.65
914.03	6641.56
914.20	6844.31
914.37	6905.75
914.54	6836.12
914.71	6889.37
914.88	6817.69
915.05	6836.12
915.22	6748.06
915.39	6809.50
915.55	6743.96
915.72	6627.23
915.89	6746.01
916.06	6795.16
916.23	6676.38
916.40	6588.32
916.57	6535.07
916.74	6528.92
916.91	6553.50
917.07	6545.31
917.24	6614.94
917.41	6606.75
917.58	6479.77
917.75	6422.43
917.92	6344.61
918.09	6309.79
918.26	6459.29
918.42	6479.77
918.59	6287.26
918.76	6442.91
918.93	6311.84
919.10	6303.65
919.27	6356.90
919.44	6453.15
919.60	6324.13
919.77	6340.51
919.94	6350.75
920.11	6281.12
920.28	6268.83
920.45	6170.53
920.61	6139.81
920.78	6154.15
920.95	6049.70
921.12	6086.56
921.29	6152.10
921.46	6145.95
921.62	6088.61
921.79	6141.86
921.96	6070.18
922.13	6029.22
922.30	5922.73
922.47	6018.98
922.63	5822.38
922.80	6035.36
922.97	5851.05
923.14	5799.85
923.31	5945.25
923.47	5883.81
923.64	5832.62
923.81	5836.71
923.98	5762.98
924.15	5840.81
924.32	5797.80
924.48	5873.57
924.65	5820.33
924.82	5588.91
924.99	5687.21
925.15	5738.41
925.32	5674.92
925.49	5650.35
925.66	5564.33
925.83	5500.84
925.99	5380.01
926.16	5584.81
926.33	5676.97
926.50	5461.93
926.67	5437.36
926.83	5449.64
927.00	5457.84
927.17	5470.12
927.34	5449.64
927.50	5390.25
927.67	5453.74
927.84	5425.07
928.01	5382.06
928.17	5230.51
928.34	5349.29
928.51	5289.90
928.68	5318.57
928.84	5148.59
929.01	5060.53
929.18	5250.99
929.35	5134.26
929.51	5132.21
929.68	5083.06
929.85	5001.14
930.02	5025.72
930.18	4966.32
930.35	4968.37
930.52	4908.98
930.69	4839.35
930.85	5095.35
931.02	5058.48
931.19	4816.82
931.36	4804.53
931.52	4960.18
931.69	4888.50
931.86	4833.21
932.02	4739.00
932.19	4712.38
932.36	4722.62
932.53	4734.90
932.69	4632.51
932.86	4786.10
933.03	4718.52
933.19	4542.39
933.36	4659.13
933.53	4616.12
933.70	4614.07
933.86	4427.71
934.03	4528.06
934.20	4648.89
934.36	4601.79
934.53	4386.75
934.70	4333.50
934.86	4472.76
935.03	4376.51
935.20	4415.42
935.36	4388.80
935.53	4345.79
935.70	4325.31
935.86	4358.08
936.03	4239.30
936.20	4083.65
936.36	4206.53
936.53	4204.48
936.70	4235.20
936.86	4167.62
937.03	4110.27
937.20	3942.34
937.36	4016.07
937.53	3885.00
937.70	3917.76
937.86	3841.99
938.03	3766.21
938.20	3878.85
938.36	3770.31
938.53	3850.18
938.70	3667.91
938.86	3594.19
939.03	3667.91
939.20	3729.35
939.36	3569.61
939.53	3532.75
939.70	3604.42
939.86	3573.71
940.03	3475.40
940.19	3432.40
940.36	3499.98
940.53	3430.35
940.69	3266.51
940.86	3338.19
941.03	3336.14
941.19	3225.55
941.36	3243.98
941.52	3278.80
941.69	3198.93
941.86	3162.06
942.02	3112.91
942.19	3172.30
942.35	3155.92
942.52	3133.39
942.69	3145.68
942.85	3143.63
943.02	3055.57
943.18	3090.38
943.35	3055.57
943.52	3022.80
943.68	2975.70
943.85	2983.89
944.01	2949.08
944.18	2998.23
944.35	3016.66
944.51	2942.93
944.68	2883.54
944.84	2899.92
945.01	2928.60
945.17	2875.35
945.34	2881.49
945.51	2889.68
945.67	2838.48
945.84	2891.73
946.00	2754.52
946.17	2867.16
946.33	2750.42
946.50	2951.12
946.67	2867.16
946.83	2877.40
947.00	2832.34
947.16	2748.37
947.33	2801.62
947.49	2891.73
947.66	2725.85
947.82	2813.91
947.99	2748.37
948.16	2768.85
948.32	2727.89
948.49	2705.37
948.65	2797.53
948.82	2783.19
948.98	2822.10
949.15	2672.60
949.31	2783.19
949.48	2736.09
949.64	2627.54
949.81	2793.43
949.97	2731.99
950.14	2746.33
950.30	2801.62
950.47	2801.62
950.63	2725.85
950.80	2748.37
950.96	2691.03
951.13	2699.22
951.30	2805.72
951.46	2693.08
951.63	2787.29
951.79	2762.71
951.96	2791.38
952.12	2705.37
952.29	2695.13
952.45	2596.82
952.62	2770.90
952.78	2680.79
952.94	2699.22
953.11	2717.65
953.27	2627.54
953.44	2707.41
953.60	2787.29
953.77	2787.29
953.93	2639.83
954.10	2729.94
954.26	2643.93
954.43	2699.22
954.59	2678.74
954.76	2785.24
954.92	2715.61
955.09	2697.17
955.25	2551.77
955.42	2641.88
955.58	2688.98
955.75	2598.87
955.91	2639.83
956.07	2590.68
956.24	2615.26
956.40	2676.70
956.57	2654.17
956.73	2654.17
956.90	2688.98
957.06	2611.16
957.23	2652.12
957.39	2660.31
957.56	2533.34
957.72	2615.26
957.88	2613.21
958.05	2600.92
958.21	2666.46
958.38	2541.53
958.54	2658.26
958.71	2725.85
958.87	2672.60
959.03	2598.87
959.20	2580.44
959.36	2574.30
959.53	2611.16
959.69	2555.86
959.85	2637.78
960.02	2643.93
960.18	2568.15
960.35	2619.35
960.51	2619.35
960.68	2615.26
960.84	2598.87
961.00	2559.96
961.17	2609.11
961.33	2621.40
961.50	2611.16
961.66	2562.01
961.82	2547.67
961.99	2643.93
962.15	2619.35
962.31	2519.00
962.48	2469.85
962.64	2605.02
962.81	2564.06
962.97	2584.54
963.13	2545.63
963.30	2600.92
963.46	2615.26
963.62	2590.68
963.79	2607.06
963.95	2584.54
964.12	2596.82
964.28	2641.88
964.44	2478.04
964.61	2551.77
964.77	2564.06
964.93	2551.77
965.10	2549.72
965.26	2529.24
965.42	2549.72
965.59	2514.91
965.75	2549.72
965.92	2607.06
966.08	2605.02
966.24	2531.29
966.41	2461.66
966.57	2605.02
966.73	2494.43
966.90	2580.44
967.06	2502.62
967.22	2471.90
967.39	2461.66
967.55	2533.34
967.71	2500.57
967.88	2457.56
968.04	2529.24
968.20	2416.60
968.37	2385.88
968.53	2418.65
968.69	2463.71
968.85	2420.70
969.02	2451.42
969.18	2559.96
969.34	2494.43
969.51	2514.91
969.67	2525.15
969.83	2463.71
970.00	2469.85
970.16	2455.51
970.32	2496.47
970.48	2459.61
970.65	2365.40
970.81	2453.47
970.97	2426.84
971.14	2369.50
971.30	2447.32
971.46	2414.56
971.63	2412.51
971.79	2475.99
971.95	2463.71
972.11	2396.12
972.28	2371.55
972.44	2418.65
972.60	2389.98
972.76	2428.89
972.93	2367.45
973.09	2461.66
973.25	2441.18
973.42	2420.70
973.58	2482.14
973.74	2383.84
973.90	2389.98
974.07	2357.21
974.23	2344.92
974.39	2306.01
974.55	2299.87
974.72	2482.14
974.88	2349.02
975.04	2432.99
975.20	2324.44
975.37	2232.29
975.53	2371.55
975.69	2334.68
975.85	2351.07
976.01	2293.72
976.18	2320.35
976.34	2346.97
976.50	2306.01
976.66	2377.69
976.83	2330.59
976.99	2355.16
977.15	2326.49
977.31	2256.86
977.47	2310.11
977.64	2441.18
977.80	2289.63
977.96	2308.06
978.12	2285.53
978.29	2301.92
978.45	2256.86
978.61	2265.05
978.77	2367.45
978.93	2359.26
979.10	2285.53
979.26	2299.87
979.42	2271.20
979.58	2256.86
979.74	2316.25
979.91	2244.57
980.07	2199.52
980.23	2314.20
980.39	2240.48
980.55	2242.53
980.71	2258.91
980.88	2191.33
981.04	2310.11
981.20	2138.08
981.36	2293.72
981.52	2228.19
981.68	2293.72
981.85	2234.33
982.01	2205.66
982.17	2275.29
982.33	2267.10
982.49	2252.77
982.65	2201.57
982.82	2324.44
982.98	2230.24
983.14	2224.09
983.30	2287.58
983.46	2246.62
983.62	2179.04
983.79	2213.85
983.95	2111.46
984.11	2162.66
984.27	2189.28
984.43	2172.89
984.59	2174.94
984.75	2156.51
984.91	2183.13
985.08	2195.42
985.24	2156.51
985.40	2111.46
985.56	2156.51
985.72	2160.61
985.88	2156.51
986.04	2142.18
986.20	2209.76
986.37	2244.57
986.53	2125.79
986.69	2181.09
986.85	2144.22
987.01	2121.70
987.17	2164.70
987.33	2113.50
987.49	2148.32
987.65	1996.77
987.82	2176.99
987.98	2119.65
988.14	2136.03
988.30	2140.13
988.46	2082.78
988.62	2074.59
988.78	2107.36
988.94	2164.70
989.10	2183.13
989.26	2076.64
989.42	2160.61
989.59	2105.31
989.75	1994.72
989.91	2160.61
990.07	2131.94
990.23	2064.35
990.39	2168.80
990.55	2025.44
990.71	2066.40
990.87	2090.98
991.03	2033.63
991.19	2021.35
991.35	2121.70
991.51	2101.22
991.67	2148.32
991.83	2103.26
992.00	2076.64
992.16	2107.36
992.32	2041.82
992.48	2146.27
992.64	2121.70
992.80	2045.92
992.96	2107.36
993.12	2009.06
993.28	2113.50
993.44	2084.83
993.60	2041.82
993.76	1968.10
993.92	2129.89
994.08	2062.30
994.24	2187.23
994.40	2000.87
994.56	2084.83
994.72	2119.65
994.88	2064.35
995.04	2056.16
995.20	2109.41
995.36	2041.82
995.52	2066.40
995.68	2004.96
995.84	1957.86
996.00	2176.99
996.16	2029.54
996.32	2095.07
996.48	2021.35
996.64	1994.72
996.80	2076.64
996.96	2017.25
997.12	2041.82
997.28	2027.49
997.44	2000.87
997.60	2004.96
997.76	2000.87
997.92	2039.78
998.08	1941.47
998.24	1978.34
998.40	2037.73
998.56	2007.01
998.72	1933.28
998.88	1920.99
999.04	1998.82
999.20	1990.63
999.36	1982.43
999.52	2064.35
999.68	1949.67
999.84	1955.81
1000.00	1896.42
1000.16	2013.15
1000.32	1957.86
1000.48	1957.86
1000.64	1933.28
1000.80	1902.56
1000.95	1972.19
1001.11	2060.26
1001.27	1955.81
1001.43	1949.67
1001.59	1933.28
1001.75	1933.28
1001.91	1984.48
1002.07	1920.99
1002.23	1931.23
1002.39	1959.91
1002.55	1898.47
1002.71	1918.95
1002.87	1849.32
1003.03	1912.80
1003.19	1935.33
1003.34	1849.32
1003.50	1865.70
1003.66	1945.57
1003.82	1955.81
1003.98	2027.49
1004.14	2007.01
1004.30	1841.12
1004.46	1900.52
1004.62	1923.04
1004.78	1837.03
1004.94	1945.57
1005.09	1933.28
1005.25	1896.42
1005.41	1910.75
1005.57	1910.75
1005.73	1894.37
1005.89	1884.13
1006.05	1957.86
1006.21	1904.61
1006.37	1789.92
1006.52	1863.65
1006.68	1859.56
1006.84	1869.80
1007.00	1845.22
1007.16	1886.18
1007.32	1863.65
1007.48	1843.17
1007.64	1933.28
1007.79	1908.71
1007.95	1882.08
1008.11	1923.04
1008.27	1904.61
1008.43	1849.32
1008.59	1837.03
1008.75	1841.12
1008.91	1839.08
1009.06	1902.56
1009.22	1822.69
1009.38	1884.13
1009.54	1861.60
1009.70	1875.94
1009.86	1867.75
1010.01	1851.36
1010.17	1855.46
1010.33	1910.75
1010.49	1904.61
1010.65	1882.08
1010.81	1841.12
1010.96	1941.47
1011.12	1845.22
1011.28	1826.79
1011.44	1912.80
1011.60	1798.12
1011.76	1810.40
1011.91	1808.36
1012.07	1882.08
1012.23	1773.54
1012.39	1849.32
1012.55	1834.98
1012.71	1906.66
1012.86	1853.41
1013.02	1740.77
1013.18	1736.68
1013.34	1763.30
1013.50	1830.88
1013.65	1869.80
1013.81	1769.44
1013.97	1759.21
1014.13	1783.78
1014.29	1820.64
1014.44	1834.98
1014.60	1775.59
1014.76	1849.32
1014.92	1802.21
1015.07	1789.92
1015.23	1781.73
1015.39	1818.60
1015.55	1875.94
1015.71	1859.56
1015.86	1818.60
1016.02	1687.53
1016.18	1648.61
1016.34	1757.16
1016.49	1812.45
1016.65	1871.84
1016.81	1738.73
1016.97	1822.69
1017.12	1832.93
1017.28	1767.40
1017.44	1753.06
1017.60	1687.53
1017.75	1730.53
1017.91	1789.92
1018.07	1808.36
1018.23	1816.55
1018.38	1742.82
1018.54	1757.16
1018.70	1714.15
1018.86	1742.82
1019.01	1724.39
1019.17	1720.29
1019.33	1798.12
1019.49	1837.03
1019.64	1718.25
1019.80	1763.30
1019.96	1787.88
1020.12	1789.92
1020.27	1769.44
1020.43	1712.10
1020.59	1783.78
1020.74	1865.70
1020.90	1720.29
1021.06	1730.53
1021.22	1712.10
1021.37	1716.20
1021.53	1646.57
1021.69	1785.83
1021.84	1716.20
1022.00	1744.87
1022.16	1693.67
1022.31	1812.45
1022.47	1796.07
1022.63	1742.82
1022.79	1708.01
1022.94	1753.06
1023.10	1765.35
1023.26	1662.95
1023.41	1701.86
1023.57	1673.19
1023.73	1734.63
1023.88	1753.06
1024.04	1716.20
1024.20	1710.05
1024.35	1865.70
1024.51	1675.24
1024.67	1652.71
1024.82	1802.21
1024.98	1695.72
1025.14	1730.53
1025.29	1767.40
1025.45	1720.29
1025.61	1689.57
1025.76	1679.33
1025.92	1695.72
1026.08	1789.92
1026.23	1751.01
1026.39	1757.16
1026.55	1736.68
1026.70	1759.21
1026.86	1722.34
1027.02	1730.53
1027.17	1714.15
1027.33	1732.58
1027.48	1734.63
1027.64	1689.57
1027.80	1624.04
1027.95	1679.33
1028.11	1642.47
1028.27	1718.25
1028.42	1677.29
1028.58	1751.01
1028.73	1660.90
1028.89	1671.14
1029.05	1744.87
1029.20	1705.96
>>>>>End Processed Spectral Data<<<<<
