SpectraSuite Data File
++++++++++++++++++++++++++++++++++++
Date: Tue Jun 13 11:56:49 CEST 2017
User: INFO_000
Dark Spectrum Present: No
Reference Spectrum Present: No
Number of Sampled Component Spectra: 1
Spectrometers: USB4H00879
Integration Time (usec): 30000 (USB4H00879)
Spectra Averaged: 1 (USB4H00879)
Boxcar Smoothing: 0 (USB4H00879)
Correct for Electrical Dark: No (USB4H00879)
Strobe/Lamp Enabled: No (USB4H00879)
Correct for Detector Non-linearity: No (USB4H00879)
Correct for Stray Light: No (USB4H00879)
Number of Pixels in Processed Spectrum: 3648
>>>>>Begin Processed Spectral Data<<<<<
345.13	1294.32
345.34	1294.32
345.56	1294.32
345.78	1380.33
345.99	1355.76
346.21	1548.26
346.42	1466.35
346.64	1538.02
346.86	1607.66
347.07	1542.12
347.29	1492.97
347.50	1501.16
347.72	1501.16
347.94	1509.35
348.15	1452.01
348.37	1503.21
348.59	1488.87
348.80	1503.21
349.02	1585.13
349.23	1673.19
349.45	1591.27
349.67	1619.94
349.88	1656.81
350.10	1621.99
350.31	1632.23
350.53	1540.07
350.75	1699.81
350.96	1593.32
351.18	1624.04
351.39	1562.60
351.61	1574.89
351.82	1660.90
352.04	1632.23
352.26	1611.75
352.47	1691.62
352.69	1648.61
352.90	1654.76
353.12	1617.90
353.34	1603.56
353.55	1736.68
353.77	1642.47
353.98	1648.61
354.20	1699.81
354.41	1656.81
354.63	1650.66
354.85	1767.40
355.06	1650.66
355.28	1574.89
355.49	1662.95
355.71	1638.38
355.92	1669.09
356.14	1662.95
356.35	1595.37
356.57	1617.90
356.79	1714.15
357.00	1626.09
357.22	1619.94
357.43	1621.99
357.65	1724.39
357.86	1708.01
358.08	1638.38
358.29	1642.47
358.51	1656.81
358.72	1703.91
358.94	1646.57
359.16	1671.14
359.37	1613.80
359.59	1667.05
359.80	1765.35
360.02	1658.85
360.23	1728.49
360.45	1662.95
360.66	1677.29
360.88	1656.81
361.09	1658.85
361.31	1669.09
361.52	1705.96
361.74	1714.15
361.95	1687.53
362.17	1665.00
362.38	1722.34
362.60	1740.77
362.81	1644.52
363.03	1720.29
363.24	1687.53
363.46	1693.67
363.67	1652.71
363.89	1767.40
364.10	1705.96
364.32	1693.67
364.53	1648.61
364.75	1738.73
364.96	1759.21
365.18	1662.95
365.39	1722.34
365.61	1712.10
365.82	1656.81
366.04	1689.57
366.25	1695.72
366.47	1738.73
366.68	1738.73
366.90	1740.77
367.11	1753.06
367.33	1734.63
367.54	1763.30
367.76	1714.15
367.97	1785.83
368.19	1783.78
368.40	1699.81
368.62	1761.25
368.83	1705.96
369.05	1755.11
369.26	1714.15
369.48	1732.58
369.69	1748.97
369.91	1705.96
370.12	1755.11
370.33	1808.36
370.55	1746.92
370.76	1740.77
370.98	1753.06
371.19	1744.87
371.41	1695.72
371.62	1791.97
371.84	1763.30
372.05	1867.75
372.27	1802.21
372.48	1787.88
372.69	1730.53
372.91	1757.16
373.12	1820.64
373.34	1738.73
373.55	1851.36
373.77	1859.56
373.98	1787.88
374.20	1802.21
374.41	1863.65
374.62	1837.03
374.84	1841.12
375.05	1925.09
375.27	1796.07
375.48	1757.16
375.70	1863.65
375.91	1877.99
376.12	1861.60
376.34	1785.83
376.55	1857.51
376.77	1900.52
376.98	1841.12
377.19	1877.99
377.41	1828.84
377.62	1896.42
377.84	1837.03
378.05	1988.58
378.27	1935.33
378.48	1880.04
378.69	1941.47
378.91	1902.56
379.12	1892.32
379.34	1929.19
379.55	1927.14
379.76	1873.89
379.98	1935.33
380.19	1972.19
380.41	1904.61
380.62	1910.75
380.83	1955.81
381.05	1824.74
381.26	1970.15
381.47	1859.56
381.69	1918.95
381.90	1898.47
382.12	2033.63
382.33	1970.15
382.54	1900.52
382.76	2002.91
382.97	1937.38
383.19	1984.48
383.40	2062.30
383.61	1933.28
383.83	1931.23
384.04	1988.58
384.25	1980.39
384.47	2080.74
384.68	2002.91
384.89	1992.67
385.11	1961.95
385.32	2037.73
385.54	2054.11
385.75	1992.67
385.96	1984.48
386.18	2054.11
386.39	2009.06
386.60	2084.83
386.82	2076.64
387.03	2068.45
387.24	2121.70
387.46	2084.83
387.67	2027.49
387.88	2154.46
388.10	2121.70
388.31	2064.35
388.52	2109.41
388.74	2252.77
388.95	2154.46
389.16	2142.18
389.38	2150.37
389.59	2123.74
389.80	2138.08
390.02	2162.66
390.23	2209.76
390.44	2113.50
390.66	2228.19
390.87	2105.31
391.08	2250.72
391.30	2203.61
391.51	2359.26
391.72	2271.20
391.94	2234.33
392.15	2191.33
392.36	2283.49
392.58	2269.15
392.79	2246.62
393.00	2303.96
393.22	2293.72
393.43	2377.69
393.64	2328.54
393.85	2303.96
394.07	2260.96
394.28	2379.74
394.49	2318.30
394.71	2320.35
394.92	2383.84
395.13	2334.68
395.35	2338.78
395.56	2418.65
395.77	2373.60
395.98	2435.03
396.20	2392.03
396.41	2480.09
396.62	2445.27
396.84	2383.84
397.05	2400.22
397.26	2463.71
397.47	2441.18
397.69	2387.93
397.90	2473.95
398.11	2492.38
398.32	2482.14
398.54	2402.27
398.75	2578.39
398.96	2418.65
399.18	2652.12
399.39	2516.95
399.60	2566.10
399.81	2516.95
400.03	2576.34
400.24	2621.40
400.45	2543.58
400.66	2549.72
400.88	2652.12
401.09	2654.17
401.30	2633.69
401.51	2613.21
401.73	2654.17
401.94	2578.39
402.15	2635.74
402.36	2631.64
402.58	2688.98
402.79	2670.55
403.00	2639.83
403.21	2629.59
403.43	2680.79
403.64	2736.09
403.85	2758.61
404.06	2725.85
404.27	2572.25
404.49	2762.71
404.70	2746.33
404.91	2795.48
405.12	2795.48
405.34	2803.67
405.55	2858.96
405.76	2699.22
405.97	2828.24
406.19	2805.72
406.40	2791.38
406.61	2901.97
406.82	2820.05
407.03	2906.07
407.25	2828.24
407.46	2881.49
407.67	2805.72
407.88	2893.78
408.09	2856.92
408.31	2766.81
408.52	2799.57
408.73	2944.98
408.94	2908.12
409.15	2930.64
409.37	2992.08
409.58	2990.03
409.79	3004.37
410.00	3051.47
410.21	2951.12
410.43	2965.46
410.64	3053.52
410.85	2983.89
411.06	3053.52
411.27	3069.91
411.48	3106.77
411.70	3014.61
411.91	3076.05
412.12	3086.29
412.33	3043.28
412.54	3164.11
412.76	3065.81
412.97	3123.15
413.18	3024.85
413.39	3069.91
413.60	3182.54
413.81	3147.73
414.03	3129.30
414.24	3129.30
414.45	3229.65
414.66	3110.86
414.87	3076.05
415.08	3200.98
415.30	3135.44
415.51	3289.04
415.72	3229.65
415.93	3129.30
416.14	3301.33
416.35	3338.19
416.56	3260.37
416.78	3311.57
416.99	3221.45
417.20	3231.69
417.41	3280.85
417.62	3280.85
417.83	3385.29
418.04	3276.75
418.26	3317.71
418.47	3336.14
418.68	3416.01
418.89	3362.76
419.10	3444.68
419.31	3444.68
419.52	3502.03
419.73	3422.16
419.95	3373.00
420.16	3340.24
420.37	3438.54
420.58	3403.72
420.79	3381.20
421.00	3491.79
421.21	3526.60
421.42	3508.17
421.63	3581.90
421.85	3616.71
422.06	3585.99
422.27	3540.94
422.48	3606.47
422.69	3585.99
422.90	3776.45
423.11	3669.96
423.32	3712.97
423.53	3792.84
423.75	3696.58
423.96	3727.30
424.17	3827.65
424.38	3776.45
424.59	3889.09
424.80	3958.72
425.01	3813.32
425.22	3862.47
425.43	3860.42
425.64	3930.05
425.85	3895.24
426.06	3946.44
426.28	3839.94
426.49	3934.15
426.70	4007.87
426.91	3987.40
427.12	4030.40
427.33	4054.98
427.54	4024.26
427.75	4052.93
427.96	4292.54
428.17	4063.17
428.38	4169.66
428.59	4177.86
428.80	4044.74
429.01	3971.01
429.23	4079.55
429.44	4382.65
429.65	4339.65
429.86	4245.44
430.07	4130.75
430.28	4308.93
430.49	4259.78
430.70	4435.90
430.91	4259.78
431.12	4331.45
431.33	4476.86
431.54	4257.73
431.75	4460.48
431.96	4327.36
432.17	4532.15
432.38	4452.28
432.59	4546.49
432.80	4556.73
433.01	4601.79
433.22	4655.03
433.43	4521.92
433.64	4675.51
433.85	4644.79
434.06	4585.40
434.27	4790.20
434.49	4804.53
434.70	4691.90
434.91	4714.42
435.12	4868.02
435.33	4736.95
435.54	4706.23
435.75	4798.39
435.96	4984.76
436.17	4753.34
436.38	4796.34
436.59	4951.99
436.80	4921.27
437.01	4992.95
437.22	4876.21
437.43	4884.41
437.64	4822.97
437.85	5179.31
438.06	5035.96
438.27	5025.72
438.48	4980.66
438.69	5152.69
438.90	4990.90
439.11	5038.00
439.32	5089.20
439.53	5195.70
439.74	5201.84
439.95	5140.40
440.16	5142.45
440.37	5189.55
440.57	5136.31
440.78	5224.37
440.99	5189.55
441.20	5240.75
441.41	5140.40
441.62	5365.68
441.83	5201.84
442.04	5308.34
442.25	5347.25
442.46	5427.12
442.67	5431.21
442.88	5752.74
443.09	5369.77
443.30	5429.17
443.51	5390.25
443.72	5709.74
443.93	5380.01
444.14	5660.59
444.35	5513.13
444.56	5728.17
444.77	5492.65
444.98	5631.91
445.19	5617.58
445.40	5613.48
445.61	5576.62
445.81	5740.46
446.02	5676.97
446.23	5625.77
446.44	5732.26
446.65	5650.35
446.86	5701.54
447.07	5801.90
447.28	6049.70
447.49	5781.42
447.70	5822.38
447.91	5930.92
448.12	5816.23
448.33	6004.64
448.54	5990.31
448.74	5836.71
448.95	6156.19
449.16	5824.42
449.37	6184.87
449.58	6010.79
449.79	6096.80
450.00	5828.52
450.21	6270.88
450.42	6369.18
450.63	6262.69
450.84	6242.21
451.05	6182.82
451.25	6307.74
451.46	6191.01
451.67	6195.11
451.88	6324.13
452.09	6344.61
452.30	6209.44
452.51	6350.75
452.72	6631.32
452.93	6696.86
453.13	6272.93
453.34	6481.82
453.55	6514.59
453.76	6592.41
453.97	6811.54
454.18	6637.47
454.39	6567.84
454.60	6547.36
454.81	6619.04
455.01	6694.81
455.22	6586.27
455.43	6827.93
455.64	6803.35
455.85	7077.78
456.06	7098.26
456.27	6848.41
456.48	7002.01
456.68	7022.48
456.89	6836.12
457.10	7079.83
457.31	7069.59
457.52	7096.21
457.73	7214.99
457.94	7243.67
458.14	7096.21
458.35	7466.89
458.56	7374.74
458.77	7180.18
458.98	7323.54
459.19	7284.62
459.39	7481.23
459.60	7550.86
459.81	7475.09
460.02	7683.98
460.23	7524.24
460.44	7827.34
460.65	7767.95
460.85	7710.60
461.06	7933.83
461.27	7677.83
461.48	7909.26
461.69	7991.17
461.89	7767.95
462.10	7817.10
462.31	7739.27
462.52	7878.54
462.73	8042.37
462.94	8167.30
463.14	7970.69
463.35	7950.21
463.56	8433.54
463.77	8275.84
463.98	8136.58
464.18	8148.87
464.39	8290.18
464.60	8472.45
464.81	8564.61
465.02	8429.44
465.23	8634.24
465.43	8677.24
465.64	8949.62
465.85	8566.65
466.06	8552.32
466.27	9058.17
466.47	8806.27
466.68	8836.99
466.89	8736.63
467.10	8998.77
467.30	8804.22
467.51	9168.76
467.72	9172.85
467.93	9031.54
468.14	9232.24
468.34	9219.96
468.55	9328.50
468.76	9369.46
468.97	9434.99
469.17	9379.70
469.38	9422.70
469.59	9633.64
469.80	9342.83
470.01	9658.22
470.21	9566.06
470.42	9789.29
470.63	9871.21
470.84	9887.59
471.04	10123.11
471.25	10024.81
471.46	10035.05
471.67	10184.55
471.87	10114.92
472.08	10356.58
472.29	10348.39
472.50	10084.20
472.70	10198.88
472.91	10309.47
473.12	10583.90
473.33	10659.68
473.53	10598.24
473.74	10565.47
473.95	10780.51
474.16	10936.15
474.36	11026.26
474.57	11278.16
474.78	11315.03
474.99	11087.70
475.19	11009.88
475.40	11308.88
475.61	11429.71
475.81	11519.82
476.02	11757.39
476.23	11577.17
476.44	11575.12
476.64	12017.48
476.85	11919.18
477.06	11790.16
477.27	12195.65
477.47	12130.12
477.68	12158.79
477.89	12220.23
478.09	12420.93
478.30	12437.31
478.51	12474.18
478.71	12422.98
478.92	12728.13
479.13	12721.98
479.34	12797.76
479.54	12726.08
479.75	12871.48
479.96	13004.60
480.16	13047.61
480.37	13281.08
480.58	13152.06
480.78	13733.68
480.99	13463.35
481.20	13504.31
481.41	13674.29
481.61	13645.62
481.82	13922.09
482.03	13526.83
482.23	14067.50
482.44	14059.31
482.65	13883.18
482.85	14112.55
483.06	14315.30
483.27	14139.18
483.47	14305.06
483.68	14616.35
483.89	14364.45
484.09	14327.59
484.30	14653.22
484.51	14915.36
484.71	15030.04
484.92	14782.24
485.13	15048.47
485.33	15128.35
485.54	15062.81
485.75	15353.62
485.95	15447.83
486.16	15406.87
486.37	15568.66
486.57	15601.43
486.78	15503.12
486.98	15609.62
487.19	15671.06
487.40	15845.13
487.60	16035.60
487.81	16178.95
488.02	16068.36
488.22	16082.70
488.43	16549.64
488.64	16336.65
488.84	16547.59
489.05	16596.74
489.25	16434.95
489.46	16695.04
489.67	16842.50
489.87	16789.25
490.08	16895.74
490.29	16871.17
490.49	17196.79
490.70	17409.78
490.90	17526.52
491.11	17538.80
491.32	17327.86
491.52	17571.57
491.73	17471.22
491.94	17544.95
492.14	17630.96
492.35	17991.41
492.55	17862.38
492.76	18052.84
492.97	18200.30
493.17	18161.39
493.38	18196.20
493.58	18487.01
493.79	18349.80
494.00	18542.31
494.20	18751.20
494.41	18417.38
494.61	18593.51
494.82	18454.25
495.02	18591.46
495.23	19031.77
495.44	18939.62
495.64	19062.49
495.85	19085.02
496.05	19179.23
496.26	19363.54
496.47	19467.99
496.67	19367.64
496.88	19318.49
497.08	19093.21
497.29	19683.03
497.49	19697.36
497.70	19857.10
497.91	19787.47
498.11	19807.95
498.32	19752.66
498.52	19818.19
498.73	20152.01
498.93	20131.53
499.14	20299.47
499.34	20272.84
499.55	20637.38
499.76	20356.81
499.96	20612.81
500.17	20410.06
500.37	20887.23
500.58	20500.17
500.78	20711.11
500.99	20688.58
501.19	20991.68
501.40	20926.14
501.60	20788.93
501.81	21026.50
502.02	21171.90
502.22	20713.16
502.43	21296.83
502.63	21182.14
502.84	21370.55
503.04	21436.09
503.25	21554.87
503.45	21251.77
503.66	21327.55
503.86	21407.42
504.07	21827.25
504.27	21634.74
504.48	21960.37
504.68	21769.91
504.89	22068.91
505.09	22009.52
505.30	21843.63
505.50	21896.88
505.71	22224.56
505.91	22238.89
506.12	22132.40
506.32	22222.51
506.53	22329.00
506.73	22335.15
506.94	22275.76
507.14	22361.77
507.35	22574.76
507.55	22566.57
507.76	22617.77
507.96	22777.51
508.17	22509.22
508.37	22587.05
508.58	22683.30
508.78	22894.24
508.99	23029.41
509.19	22847.14
509.40	23162.53
509.60	22845.09
509.81	23207.58
510.01	23113.38
510.22	23074.46
510.42	23424.67
510.63	23340.70
510.83	23471.77
511.04	23408.28
511.24	23617.18
511.44	23541.40
511.65	23582.36
511.85	23647.90
512.06	23592.60
512.26	23746.20
512.47	23862.93
512.67	23668.37
512.88	24039.06
513.08	23787.16
513.29	24014.48
513.49	23740.05
513.69	23754.39
513.90	23950.99
514.10	24219.28
514.31	24151.70
514.51	24141.46
514.72	24110.74
514.92	24231.57
515.13	24325.77
515.33	24229.52
515.53	24340.11
515.74	24405.64
515.94	24444.56
516.15	24616.58
516.35	24651.40
516.56	24561.29
516.76	24782.47
516.96	24854.15
517.17	24874.63
517.37	24964.74
517.58	24725.13
517.78	24964.74
517.99	24866.44
518.19	25073.28
518.39	25079.43
518.60	25071.23
518.80	25118.34
519.01	25308.80
519.21	25169.54
519.41	25163.39
519.62	25550.46
519.82	25446.01
520.03	25706.10
520.23	25441.92
520.43	25423.48
520.64	25745.02
520.84	25486.97
521.05	25480.83
521.25	25812.60
521.45	25925.24
521.66	26138.23
521.86	25929.33
522.07	25792.12
522.27	26080.88
522.47	25906.80
522.68	26392.17
522.88	26175.09
523.08	26248.82
523.29	26367.60
523.49	26238.58
523.70	26355.31
523.90	26629.74
524.10	26416.75
524.31	26738.28
524.51	26422.89
524.71	26855.01
524.92	26934.88
525.12	26924.65
525.33	26711.66
525.53	27194.98
525.73	27407.97
525.94	27307.62
526.14	27235.94
526.34	27541.08
526.55	27348.57
526.75	27225.70
526.95	27696.73
527.16	27432.54
527.36	27553.37
527.56	27647.58
527.77	28200.53
527.97	27725.40
528.17	27739.74
528.38	28059.22
528.58	27676.25
528.78	28352.08
528.99	27971.16
529.19	28548.68
529.39	28221.01
529.60	28327.50
529.80	28460.62
530.00	28241.49
530.21	28231.25
530.41	28552.78
530.61	28573.26
530.82	28474.96
531.02	28616.27
531.22	28540.49
531.43	28964.42
531.63	29005.38
531.83	29517.37
532.04	29382.21
532.24	29126.21
532.44	29576.76
532.64	29445.69
532.85	29519.42
533.05	29615.68
533.25	29736.51
533.46	29263.43
533.66	29791.80
533.86	29771.32
534.07	30084.66
534.27	30164.53
534.47	30109.24
534.67	30037.56
534.88	30180.92
535.08	30246.45
535.28	30385.71
535.49	30492.21
535.69	30789.16
535.89	30664.24
536.09	30639.66
536.30	30610.99
536.50	30602.80
536.70	30793.26
536.91	30799.40
537.11	30918.18
537.31	30828.07
537.51	31020.58
537.72	31276.58
537.92	31155.75
538.12	31516.19
538.32	31364.64
538.53	31430.18
538.73	31256.10
538.93	31241.76
539.13	31551.01
539.34	31581.73
539.54	31456.80
539.74	31890.97
539.94	31938.07
540.15	31809.05
540.35	31901.21
540.55	32052.76
540.75	32222.74
540.96	32003.61
541.16	32028.18
541.36	31993.37
541.56	32019.99
541.77	32589.33
541.97	32038.42
542.17	32820.75
542.37	32314.90
542.58	32513.55
542.78	32292.37
542.98	32615.95
543.18	32587.28
543.38	32947.72
543.59	33011.21
543.79	32980.49
543.99	32962.06
544.19	33009.16
544.40	32773.64
544.60	33119.75
544.80	33336.84
545.00	33060.36
545.20	33203.72
545.41	33138.18
545.61	33377.79
545.81	33259.01
546.01	33349.12
546.21	33390.08
546.42	33138.18
546.62	33641.98
546.82	33474.05
547.02	33576.45
547.22	33605.12
547.43	33340.93
547.63	33908.22
547.83	33658.37
548.03	33570.30
548.23	33814.01
548.44	33947.13
548.64	33816.06
548.84	33830.40
549.04	33918.46
549.24	33953.27
549.45	34248.18
549.65	34088.44
549.85	34307.57
550.05	34266.61
550.25	34229.75
550.45	34483.70
550.66	34751.98
550.86	34319.86
551.06	34426.35
551.26	34514.42
551.46	34713.07
551.66	34489.84
551.87	34297.33
552.07	34551.28
552.27	34528.75
552.47	34532.85
552.67	34565.62
552.87	34332.15
553.07	35038.70
553.28	34962.92
553.48	34911.72
553.68	34708.97
553.88	34733.55
554.08	35081.70
554.28	34815.47
554.48	34946.54
554.69	35143.14
554.89	35139.05
555.09	35134.95
555.29	35120.62
555.49	34856.43
555.69	35241.45
555.89	35098.09
556.10	35460.58
556.30	35081.70
556.50	35354.08
556.70	35032.55
556.90	35255.78
557.10	35225.06
557.30	35157.48
557.50	35192.30
557.70	35644.90
557.91	35888.60
558.11	35638.75
558.31	35589.60
558.51	35399.14
558.71	35753.44
558.91	35821.02
559.11	35675.62
559.31	35644.90
559.51	35808.73
559.72	35481.06
559.92	36036.06
560.12	35616.22
560.32	35968.48
560.52	35622.37
560.72	36005.34
560.92	36019.67
561.12	36310.49
561.32	35995.10
561.52	35907.04
561.72	36412.88
561.93	35907.04
562.13	35945.95
562.33	35839.45
562.53	36529.62
562.73	35911.13
562.93	36138.46
563.13	35751.39
563.33	35556.83
563.53	36406.74
563.73	35841.50
563.93	36355.54
564.13	36490.71
564.33	36318.68
564.53	36494.80
564.74	36242.90
564.94	36812.24
565.14	36546.00
565.34	36173.27
565.54	36662.74
565.74	36333.01
565.94	36859.34
566.14	36730.32
566.34	36294.10
566.54	36740.56
566.74	36584.91
566.94	36840.91
567.14	36578.77
567.34	36132.31
567.54	36756.94
567.74	36775.37
567.94	36441.56
568.14	37008.84
568.34	36623.83
568.54	36974.03
568.74	37264.84
568.94	36658.64
569.14	36988.36
569.34	37119.43
569.54	36937.16
569.75	36773.33
569.95	37078.47
570.15	37492.16
570.35	37041.61
570.55	37187.02
570.75	36906.44
570.95	37238.22
571.15	37203.40
571.35	37377.48
571.55	37412.29
571.75	37268.94
571.95	37344.71
572.15	37164.49
572.35	37299.65
572.55	37533.12
572.75	37146.06
572.95	37459.40
573.15	37541.32
573.35	37311.94
573.55	36896.20
573.75	37205.45
573.95	37502.40
574.15	37447.11
574.35	37758.40
574.55	37526.98
574.75	37774.78
574.95	37586.37
575.15	37432.77
575.34	37404.10
575.54	37766.59
575.74	37809.60
575.94	37846.46
576.14	38219.19
576.34	38243.77
576.54	38006.20
576.74	37828.03
576.94	37664.19
577.14	38014.40
577.34	38497.72
577.54	38012.35
577.74	38233.53
577.94	38086.07
578.14	38596.02
578.34	37983.68
578.54	38034.88
578.74	38309.30
578.94	38360.50
579.14	38178.23
579.34	38520.24
579.54	38460.85
579.74	38839.73
579.94	38628.79
580.13	38811.06
580.33	38331.83
580.53	38774.19
580.73	38958.51
580.93	38665.65
581.13	38456.76
581.33	38874.54
581.53	38999.47
581.73	38563.25
581.93	38817.20
582.13	38759.86
582.33	39071.15
582.53	38585.78
582.73	39210.41
582.92	39114.16
583.12	39249.32
583.32	38946.22
583.52	39142.83
583.72	39419.30
583.92	39243.18
584.12	39259.56
584.32	39421.35
584.52	39839.14
584.72	39622.05
584.92	39341.48
585.11	39966.11
585.31	39261.61
585.51	39644.58
585.71	39292.33
585.91	39968.16
586.11	39628.20
586.31	39462.31
586.51	39660.96
586.71	39687.59
586.91	39671.20
587.10	39841.18
587.30	39884.19
587.50	40250.78
587.70	39468.45
587.90	39572.90
588.10	40175.00
588.30	40224.15
588.50	40261.02
588.69	40322.46
588.89	39894.43
589.09	39910.82
589.29	40107.42
589.49	40586.64
589.69	40312.22
589.89	40418.71
590.08	40340.89
590.28	40263.07
590.48	40400.28
590.68	39968.16
590.88	40383.90
591.08	40506.77
591.28	40246.68
591.47	40230.30
591.67	40600.98
591.87	40435.10
592.07	40160.67
592.27	40375.70
592.47	40367.51
592.67	40062.36
592.86	40854.93
593.06	40746.39
593.26	40641.94
593.46	40572.31
593.66	40385.94
593.86	40232.35
594.05	40629.65
594.25	40869.26
594.45	40670.61
594.65	40496.53
594.85	40551.83
595.05	40789.39
595.24	40664.47
595.44	41014.67
595.64	40777.11
595.84	40449.43
596.04	40625.56
596.23	41133.45
596.43	41088.40
596.63	40883.60
596.83	41029.01
597.03	40846.74
597.22	41772.42
597.42	41209.23
597.62	41762.18
597.82	41618.82
598.02	40969.61
598.21	41244.04
598.41	41231.75
598.61	41821.57
598.81	41241.99
599.01	41672.07
599.20	41241.99
599.40	41710.98
599.60	41434.50
599.80	41584.01
600.00	41661.83
600.19	41975.17
600.39	41479.56
600.59	41665.92
600.79	42050.94
600.98	41457.03
601.18	41782.66
601.38	42093.95
601.58	42050.94
601.78	41721.22
601.97	42034.56
602.17	42212.73
602.37	42317.18
602.57	41790.85
602.76	42296.70
602.96	41876.86
603.16	41837.95
603.36	42182.01
603.55	42575.22
603.75	42212.73
603.95	42268.03
604.15	42005.89
604.34	42296.70
604.54	42661.24
604.74	42206.59
604.94	42112.38
605.13	42552.69
605.33	42607.99
605.53	42392.95
605.73	42517.88
605.92	42298.75
606.12	42470.78
606.32	42562.93
606.52	42366.33
606.71	42552.69
606.91	42739.06
607.11	42423.67
607.30	42767.73
607.50	42689.91
607.70	42653.05
607.90	42519.93
608.09	42626.42
608.29	42814.83
608.49	43038.06
608.68	42888.56
608.88	42868.08
609.08	42708.34
609.28	42939.76
609.47	42761.59
609.67	43414.89
609.87	42663.28
610.06	42730.87
610.26	42863.99
610.46	42837.36
610.66	43007.34
610.85	42777.97
611.05	42866.03
611.25	43425.13
611.44	43218.28
611.64	42866.03
611.84	42505.59
612.03	43130.22
612.23	43079.02
612.43	43314.54
612.62	42933.62
612.82	42845.55
613.02	43107.69
613.21	42962.29
613.41	42902.90
613.61	43523.43
613.80	42909.04
614.00	42607.99
614.20	42771.83
614.39	42902.90
614.59	43068.78
614.79	43054.45
614.98	42931.57
615.18	42986.86
615.38	43318.64
615.57	43154.80
615.77	42935.66
615.97	43183.47
616.16	43005.30
616.36	42745.20
616.56	43097.45
616.75	43005.30
616.95	42857.84
617.15	42718.58
617.34	43033.97
617.54	42638.71
617.74	42894.71
617.93	42859.89
618.13	42710.39
618.32	42855.79
618.52	42395.00
618.72	42630.52
618.91	42882.42
619.11	42456.44
619.31	42663.28
619.50	42691.96
619.70	42562.93
619.90	43003.25
620.09	42831.22
620.29	42427.77
620.48	42515.83
620.68	42855.79
620.88	42243.45
621.07	42478.97
621.27	42425.72
621.46	42059.13
621.66	42554.74
621.86	42880.37
622.05	42605.94
622.25	42628.47
622.44	42685.81
622.64	42188.16
622.84	42716.53
623.03	42298.75
623.23	41956.74
623.42	42169.72
623.62	42495.35
623.82	42730.87
624.01	42216.83
624.21	42636.66
624.40	42229.12
624.60	42429.82
624.80	42345.85
624.99	42581.37
625.19	42030.46
625.38	42222.97
625.58	42333.56
625.77	42282.36
625.97	42093.95
626.17	41928.06
626.36	42364.28
626.56	42456.44
626.75	41870.72
626.95	42399.10
627.14	41975.17
627.34	42542.45
627.54	42202.49
627.73	42184.06
627.93	42442.10
628.12	42077.57
628.32	42306.94
628.51	42024.32
628.71	41928.06
628.90	42120.57
629.10	41696.64
629.30	41862.53
629.49	42018.17
629.69	41780.61
629.88	42149.24
630.08	41880.96
630.27	42245.50
630.47	42157.44
630.66	41727.36
630.86	42229.12
631.05	41454.98
631.25	42155.39
631.44	42081.66
631.64	41837.95
631.84	41995.65
632.03	42218.88
632.23	41811.33
632.42	42067.33
632.62	42261.88
632.81	41876.86
633.01	42192.25
633.20	42089.85
633.40	42280.31
633.59	42184.06
633.79	41827.71
633.98	41887.10
634.18	42182.01
634.37	42108.29
634.57	42098.05
634.76	42476.92
634.96	41622.92
635.15	42061.18
635.35	41766.27
635.54	41770.37
635.74	42079.61
635.93	42077.57
636.13	41909.63
636.32	42143.10
636.52	41727.36
636.71	41899.39
636.91	42046.85
637.10	42032.51
637.30	41903.49
637.49	41674.12
637.69	41921.92
637.88	41960.83
638.08	41549.19
638.27	41723.27
638.46	41774.47
638.66	41899.39
638.85	42298.75
639.05	41944.45
639.24	41993.60
639.44	41796.99
639.63	42237.31
639.83	41837.95
640.02	41860.48
640.22	42145.15
640.41	41698.69
640.61	41375.11
640.80	41807.23
640.99	41598.34
641.19	42212.73
641.38	41735.56
641.58	41807.23
641.77	41450.89
641.97	41649.54
642.16	41817.47
642.36	41844.10
642.55	41733.51
642.74	41688.45
642.94	42175.87
643.13	41696.64
643.33	41981.31
643.52	41926.02
643.72	41575.81
643.91	41590.15
644.10	41723.27
644.30	41915.78
644.49	41389.45
644.69	41897.34
644.88	41573.77
645.08	41481.61
645.27	41977.22
645.46	41614.72
645.66	41864.58
645.85	41610.63
646.05	41586.05
646.24	41833.86
646.43	41457.03
646.63	42136.96
646.82	41794.95
647.02	41813.38
647.21	41561.48
647.40	41616.77
647.60	42237.31
647.79	41821.57
647.99	42100.09
648.18	41541.00
648.37	42231.16
648.57	42177.92
648.76	41768.32
648.96	41846.15
649.15	41506.18
649.34	42022.27
649.54	41889.15
649.73	41461.13
649.92	41819.52
650.12	41516.42
650.31	42001.79
650.51	41880.96
650.70	41987.46
650.89	41749.89
651.09	42349.95
651.28	42040.70
651.47	41551.24
651.67	41549.19
651.86	41876.86
652.06	41418.12
652.25	41745.80
652.44	41811.33
652.64	41641.35
652.83	41579.91
653.02	41481.61
653.22	41420.17
653.41	41364.87
653.60	41244.04
653.80	41465.22
653.99	41807.23
654.18	41354.63
654.38	41629.06
654.57	41735.56
654.76	41360.78
654.96	41381.26
655.15	41512.33
655.34	41358.73
655.54	41211.28
655.73	41741.70
655.92	41215.37
656.12	41487.75
656.31	41373.06
656.50	41323.91
656.70	41063.82
656.89	41530.76
657.08	41604.49
657.28	41670.02
657.47	41416.07
657.66	41840.00
657.86	41624.96
658.05	41788.80
658.24	41588.10
658.43	41309.58
658.63	41704.84
658.82	41366.92
659.01	41719.17
659.21	41418.12
659.40	41584.01
659.59	41086.35
659.79	41690.50
659.98	41573.77
660.17	41551.24
660.36	41401.74
660.56	41696.64
660.75	41508.23
660.94	41303.43
661.14	41584.01
661.33	41465.22
661.52	40836.50
661.71	41596.29
661.91	41250.19
662.10	41241.99
662.29	41203.08
662.49	41442.70
662.68	41350.54
662.87	41231.75
663.06	41254.28
663.26	40871.31
663.45	41334.15
663.64	41194.89
663.83	41766.27
664.03	41164.17
664.22	40949.14
664.41	41352.58
664.60	41368.97
664.80	41180.56
664.99	40938.90
665.18	41360.78
665.37	41315.72
665.57	41487.75
665.76	41325.96
665.95	41086.35
666.14	41244.04
666.34	41205.13
666.53	41082.25
666.72	41203.08
666.91	40705.43
667.11	40928.66
667.30	41080.21
667.49	40760.72
667.68	40912.27
667.87	40981.90
668.07	41008.53
668.26	40920.46
668.45	41063.82
668.64	40756.63
668.84	41457.03
669.03	41055.63
669.22	41002.38
669.41	40940.94
669.60	40973.71
669.80	40863.12
669.99	40990.09
670.18	40658.32
670.37	40801.68
670.57	40967.57
670.76	40529.30
670.95	40596.88
671.14	40967.57
671.33	40609.17
671.53	40664.47
671.72	40777.11
671.91	40572.31
672.10	40512.92
672.29	40820.11
672.48	40662.42
672.68	40658.32
672.87	40435.10
673.06	40609.17
673.25	40304.02
673.44	39982.49
673.64	40443.29
673.83	40441.24
674.02	40781.20
674.21	40568.21
674.40	40572.31
674.59	40265.11
674.79	40465.81
674.98	40320.41
675.17	40547.73
675.36	40191.39
675.55	40312.22
675.74	40445.33
675.94	40084.89
676.13	40480.15
676.32	40625.56
676.51	40676.76
676.70	40439.19
676.89	40191.39
677.08	40566.16
677.28	40355.22
677.47	39992.73
677.66	40482.20
677.85	40463.77
678.04	40355.22
678.23	40377.75
678.42	40435.10
678.62	39939.49
678.81	40261.02
679.00	40424.86
679.19	40142.24
679.38	39990.69
679.57	39943.58
679.76	40258.97
679.96	39728.55
680.15	39933.34
680.34	39937.44
680.53	39599.52
680.72	40117.66
680.91	40045.98
681.10	39935.39
681.29	39923.10
681.48	39490.98
681.68	39603.62
681.87	39749.03
682.06	39533.99
682.25	39249.32
682.44	39706.02
682.63	39585.19
682.82	39198.12
683.01	39251.37
683.20	39118.25
683.39	39458.21
683.59	39126.44
683.78	39589.28
683.97	39308.71
684.16	39220.65
684.35	39077.29
684.54	39290.28
684.73	39304.62
684.92	38968.75
685.11	39042.48
685.30	38895.02
685.49	39091.63
685.69	39118.25
685.88	39335.34
686.07	39323.05
686.26	38911.41
686.45	39349.67
686.64	38997.42
686.83	39120.30
687.02	39249.32
687.21	38710.71
687.40	39142.83
687.59	38978.99
687.78	38817.20
687.97	39280.04
688.16	38899.12
688.35	38577.59
688.54	38776.24
688.74	38534.58
688.93	38792.62
689.12	38788.53
689.31	38831.54
689.50	38761.90
689.69	38385.08
689.88	38196.67
690.07	38946.22
690.26	38710.71
690.45	39067.05
690.64	38614.45
690.83	38208.95
691.02	38184.38
691.21	38739.38
691.40	38585.78
691.59	38522.29
691.78	38190.52
691.97	38612.40
692.16	38510.00
692.35	38829.49
692.54	37959.10
692.73	38704.56
692.92	38366.65
693.11	38249.91
693.30	37967.29
693.49	38563.25
693.68	38221.24
693.87	38188.47
694.06	38454.71
694.25	38233.53
694.44	38077.88
694.63	37938.62
694.82	38071.74
695.01	37639.62
695.20	37885.37
695.39	37729.73
695.58	37774.78
695.77	37871.04
695.96	37549.51
696.15	37877.18
696.34	37635.52
696.53	37785.02
696.72	38073.79
696.91	37756.35
697.10	37477.83
697.29	37561.79
697.48	37905.85
697.67	37406.15
697.86	37612.99
698.05	37289.42
698.24	37287.37
698.43	37055.95
698.62	37162.44
698.81	37037.51
699.00	37434.82
699.19	37031.37
699.38	37483.97
699.57	36791.76
699.76	37703.10
699.95	37160.39
700.14	36857.29
700.32	36978.12
700.51	36861.39
700.70	37281.22
700.89	36539.86
701.08	37369.29
701.27	36670.93
701.46	36941.26
701.65	36619.73
701.84	36906.44
702.03	36705.74
702.22	36875.73
702.41	36996.56
702.60	36959.69
702.79	36656.59
702.98	36490.71
703.17	36570.58
703.35	36328.92
703.54	36423.12
703.73	36668.88
703.92	36541.91
704.11	36732.37
704.30	36560.34
704.49	36406.74
704.68	36390.36
704.87	36433.36
705.06	36290.01
705.25	35855.84
705.43	36486.61
705.62	36367.83
705.81	35915.23
706.00	36068.83
706.19	36085.21
706.38	35988.95
706.57	36107.74
706.76	36122.07
706.95	36259.29
707.14	36019.67
707.32	35933.66
707.51	36163.03
707.70	35892.70
707.89	35773.92
708.08	35956.19
708.27	35786.21
708.46	36191.70
708.65	35655.14
708.84	35921.37
709.02	35816.93
709.21	35773.92
709.40	35788.25
709.59	35755.49
709.78	35227.11
709.97	35954.14
710.16	35444.20
710.34	35661.28
710.53	35472.87
710.72	35452.39
710.91	35567.07
711.10	35204.58
711.29	35390.95
711.48	35212.77
711.66	35206.63
711.85	35106.28
712.04	35053.03
712.23	35190.25
712.42	35253.73
712.61	35431.91
712.80	34973.16
712.98	34962.92
713.17	34913.77
713.36	34999.79
713.55	34631.15
713.74	35431.91
713.93	34883.05
714.11	34936.30
714.30	34698.73
714.49	34655.73
714.68	34758.13
714.87	34690.54
715.06	34964.97
715.24	34469.36
715.43	34921.96
715.62	34414.07
715.81	34448.88
716.00	34608.62
716.18	34309.62
716.37	34608.62
716.56	34283.00
716.75	34633.20
716.94	34596.34
717.12	34203.13
717.31	34215.41
717.50	34352.63
717.69	34260.47
717.88	34149.88
718.06	34055.67
718.25	34168.31
718.44	34082.30
718.63	34002.43
718.82	33893.88
719.00	33883.64
719.19	33834.49
719.38	33854.97
719.57	33717.76
719.76	33621.50
719.94	33920.51
720.13	33521.15
720.32	33383.94
720.51	33451.52
720.69	33209.86
720.88	33553.92
721.07	33234.44
721.26	33037.83
721.44	32740.88
721.63	33193.48
721.82	32812.56
722.01	32873.99
722.20	32818.70
722.38	32996.87
722.57	32890.38
722.76	32910.86
722.95	32888.33
723.13	32722.44
723.32	32822.80
723.51	32282.13
723.70	32429.59
723.88	32562.70
724.07	32452.11
724.26	32609.81
724.44	32386.58
724.63	32593.42
724.82	32194.07
725.01	32450.06
725.19	32378.39
725.38	32259.60
725.57	32155.16
725.76	32591.37
725.94	31833.63
726.13	32423.44
726.32	32026.14
726.51	32017.94
726.69	32067.09
726.88	31999.51
727.07	32034.33
727.25	32005.66
727.44	31901.21
727.63	32034.33
727.82	32198.16
728.00	32060.95
728.19	31952.41
728.38	32032.28
728.56	31641.12
728.75	32091.67
728.94	31684.12
729.12	32038.42
729.31	31784.48
729.50	31809.05
729.69	32241.17
729.87	31567.39
730.06	31622.69
730.25	31665.69
730.43	31913.50
730.62	31227.43
730.81	31634.97
730.99	31559.20
731.18	31616.54
731.37	31755.80
731.55	31503.90
731.74	32015.90
731.93	31919.64
732.11	31528.48
732.30	31551.01
732.49	31487.52
732.67	31266.34
732.86	31391.26
733.05	31544.86
733.23	31110.69
733.42	31301.15
733.61	31100.45
733.79	31127.08
733.98	31434.27
734.17	31483.42
734.35	31120.93
734.54	31053.35
734.73	31358.50
734.91	31219.24
735.10	30821.93
735.29	31276.58
735.47	30866.98
735.66	31176.23
735.84	31143.46
736.03	30823.98
736.22	31106.60
736.40	30953.00
736.59	31024.68
736.78	30836.27
736.96	31020.58
737.15	30635.56
737.33	30627.37
737.52	30717.48
737.71	30436.91
737.89	30715.44
738.08	30445.10
738.27	30668.33
738.45	30811.69
738.64	30721.58
738.82	30539.31
739.01	30400.05
739.20	30500.40
739.38	29914.68
739.57	30529.07
739.75	30377.52
739.94	29967.93
740.13	30273.07
740.31	30099.00
740.50	30174.77
740.68	30365.23
740.87	30047.80
741.06	30299.70
741.24	30365.23
741.43	30045.75
741.61	30258.74
741.80	29947.45
741.99	30158.39
742.17	30172.72
742.36	30123.57
742.54	30060.09
742.73	29994.55
742.91	30119.48
743.10	29744.70
743.29	29857.34
743.47	29888.06
743.66	29744.70
743.84	29892.15
744.03	29734.46
744.21	29650.49
744.40	30113.33
744.59	29988.41
744.77	29359.68
744.96	30049.85
745.14	30047.80
745.33	29537.85
745.51	29541.95
745.70	29584.96
745.88	29566.52
746.07	29609.53
746.26	29298.24
746.44	29769.27
746.63	29431.36
746.81	29419.07
747.00	29253.19
747.18	29189.70
747.37	29199.94
747.55	29228.61
747.74	29341.25
747.92	28769.86
748.11	29535.81
748.29	29351.49
748.48	29070.92
748.66	28753.48
748.85	29064.77
749.03	29341.25
749.22	29093.44
749.41	28905.03
749.59	29021.77
749.78	28970.57
749.96	28853.83
750.15	29109.83
750.33	29302.34
750.52	28786.25
750.70	28634.70
750.89	28757.58
751.07	28577.36
751.26	28657.23
751.44	28761.67
751.63	28651.08
751.81	28429.90
752.00	28431.95
752.18	28976.71
752.37	28714.57
752.55	28235.35
752.74	28261.97
752.92	28540.49
753.10	28243.54
753.29	28169.81
753.47	28216.91
753.66	28583.50
753.84	28460.62
754.03	28319.31
754.21	28333.65
754.40	28481.10
754.58	28579.40
754.77	28030.55
754.95	27989.59
755.14	28151.38
755.32	28128.85
755.51	27706.97
755.69	28237.39
755.88	28139.09
756.06	28089.94
756.24	27799.13
756.43	27768.41
756.61	27827.80
756.80	27684.44
756.98	27766.36
757.17	27870.81
757.35	28083.80
757.54	27549.28
757.72	27522.65
757.90	27555.42
758.09	27502.17
758.27	27866.71
758.46	27498.08
758.64	27608.67
758.83	27229.79
759.01	27336.29
759.19	27385.44
759.38	27280.99
759.56	27657.82
759.75	27739.74
759.93	27432.54
760.12	27242.08
760.30	27111.01
760.48	27125.35
760.67	27715.16
760.85	27211.36
761.04	27194.98
761.22	27328.10
761.40	27084.39
761.59	27166.31
761.77	26783.34
761.96	26799.72
762.14	26756.71
762.32	27063.91
762.51	26787.43
762.69	26934.88
762.88	27037.28
763.06	27039.33
763.24	27057.76
763.43	26869.35
763.61	26642.03
763.80	26736.23
763.98	26543.72
764.16	26351.21
764.35	26404.46
764.53	26248.82
764.72	26621.55
764.90	26480.24
765.08	26209.90
765.27	26517.10
765.45	26185.33
765.63	26173.04
765.82	26461.80
766.00	26138.23
766.18	26029.68
766.37	26093.17
766.55	26289.77
766.74	26013.30
766.92	26101.36
767.10	26279.54
767.29	26019.44
767.47	25710.20
767.65	26445.42
767.84	25790.07
768.02	26236.53
768.20	25927.28
768.39	25818.74
768.57	25632.38
768.75	25804.41
768.94	26203.76
769.12	25894.52
769.30	25685.62
769.49	25519.74
769.67	25792.12
769.85	25257.60
770.04	25575.03
770.22	25431.68
770.40	25503.35
770.59	25147.01
770.77	25513.59
770.95	25433.72
771.14	25509.50
771.32	25394.81
771.50	25161.34
771.69	24997.51
771.87	25577.08
772.05	25323.13
772.24	25263.74
772.42	25015.94
772.60	25071.23
772.78	25069.19
772.97	24868.48
773.15	24985.22
773.33	25097.86
773.52	24745.61
773.70	25110.14
773.88	24972.93
774.07	25065.09
774.25	25130.62
774.43	25087.62
774.61	25101.95
774.80	25398.91
774.98	25122.43
775.16	25050.75
775.34	25235.07
775.53	25208.45
775.71	24929.92
775.89	24950.40
776.08	24739.46
776.26	24725.13
776.44	24999.55
776.62	24622.73
776.81	24938.12
776.99	25089.67
777.17	24979.07
777.35	24675.98
777.54	24977.03
777.72	24745.61
777.90	25028.23
778.08	25296.51
778.27	25257.60
778.45	25497.21
778.63	25157.25
778.81	24983.17
779.00	25233.02
779.18	24966.79
779.36	25214.59
779.54	25169.54
779.73	25110.14
779.91	25042.56
780.09	25319.04
780.27	24974.98
780.46	25212.54
780.64	25110.14
780.82	25099.90
781.00	24946.31
781.19	25071.23
781.37	25325.18
781.55	25228.93
781.73	25450.11
781.91	25276.03
782.10	25226.88
782.28	25169.54
782.46	25173.63
782.64	25462.40
782.82	24878.72
783.01	25255.55
783.19	25214.59
783.37	25095.81
783.55	25124.48
783.74	25360.00
783.92	25267.84
784.10	25405.05
784.28	25104.00
784.46	25020.03
784.64	24680.07
784.83	24950.40
785.01	25251.45
785.19	24931.97
785.37	25157.25
785.55	24862.34
785.74	24862.34
785.92	25083.52
786.10	24798.85
786.28	24921.73
786.46	24706.70
786.64	24897.16
786.83	25065.09
787.01	24868.48
787.19	24909.44
787.37	24870.53
787.55	24927.88
787.74	24487.56
787.92	24874.63
788.10	24647.30
788.28	24331.92
788.46	24675.98
788.64	24641.16
788.82	24692.36
789.01	24635.02
789.19	24700.55
789.37	24587.91
789.55	24583.82
789.73	24475.27
789.91	24348.30
790.09	24209.04
790.28	24381.07
790.46	23994.00
790.64	24239.76
790.82	24264.33
791.00	24106.64
791.18	24196.75
791.36	24059.54
791.55	24043.15
791.73	23916.18
791.91	23885.46
792.09	24037.01
792.27	23889.56
792.45	23852.69
792.63	23830.16
792.81	23844.50
793.00	23625.37
793.18	23533.21
793.36	23740.05
793.54	23580.31
793.72	23553.69
793.90	23449.24
794.08	23219.87
794.26	23504.54
794.44	22967.97
794.62	23096.99
794.81	23156.38
794.99	23199.39
795.17	23010.98
795.35	23318.17
795.53	22853.28
795.71	23129.76
795.89	22843.04
796.07	22650.53
796.25	22488.74
796.43	22711.97
796.61	22668.97
796.80	22597.29
796.98	22591.14
797.16	22607.53
797.34	22353.58
797.52	22322.86
797.70	22509.22
797.88	22290.09
798.06	22292.14
798.24	22269.61
798.42	22425.26
798.60	22234.80
798.78	22027.95
798.96	22171.31
799.14	21749.43
799.32	22255.28
799.51	21726.90
799.69	21984.94
799.87	21898.93
800.05	21446.33
800.23	21671.61
800.41	21780.15
800.59	21499.58
800.77	21464.76
800.95	21536.44
801.13	21481.14
801.31	21147.33
801.49	21532.34
801.67	21360.31
801.85	21405.37
802.03	21216.96
802.21	21038.78
802.39	20901.57
802.57	21040.83
802.75	20625.09
802.93	21020.35
803.11	20864.71
803.29	20655.81
803.47	20604.61
803.65	20774.60
803.83	20793.03
804.01	20770.50
804.19	20485.83
804.37	20534.98
804.55	20362.95
804.73	20602.57
804.91	20678.34
805.09	20451.02
805.27	20371.15
805.45	20428.49
805.63	20297.42
805.81	20453.06
805.99	20246.22
806.17	20362.95
806.35	20117.20
806.53	20094.67
806.71	20096.72
806.89	19789.52
807.07	19754.71
807.25	19869.39
807.43	19846.87
807.61	19857.10
807.79	19582.68
807.97	19605.20
808.15	19607.25
808.33	19601.11
808.51	19408.60
808.69	19521.24
808.87	19578.58
809.05	19566.29
809.23	19707.60
809.41	19287.77
809.59	19478.23
809.77	19328.73
809.95	19134.17
810.13	19500.76
810.31	19289.82
810.49	19156.70
810.67	19250.91
810.84	19117.79
811.02	19089.12
811.20	18902.75
811.38	19091.16
811.56	18630.37
811.74	19093.21
811.92	18880.22
812.10	18999.01
812.28	19035.87
812.46	18788.07
812.64	18826.98
812.82	18806.50
813.00	18726.63
813.18	18706.15
813.36	18335.46
813.53	18509.54
813.71	18663.14
813.89	18466.53
814.07	18706.15
814.25	18454.25
814.43	18192.11
814.61	18267.88
814.79	18147.05
814.97	18380.52
815.15	18325.22
815.33	18032.36
815.50	18116.33
815.68	18132.72
815.86	18364.14
816.04	17889.01
816.22	18300.65
816.40	18149.10
816.58	17944.30
816.76	17784.56
816.94	17979.12
817.11	17962.73
817.29	17862.38
817.47	17735.41
817.65	17553.14
817.83	17651.44
818.01	17450.74
818.19	17553.14
818.37	17420.02
818.54	17143.55
818.72	17428.21
818.90	17356.54
819.08	17237.75
819.26	17219.32
819.44	17286.90
819.62	17313.53
819.80	17299.19
819.97	17391.35
820.15	17166.07
820.33	17397.49
820.51	17252.09
820.69	16981.76
820.87	17217.27
821.05	17307.38
821.22	17024.76
821.40	17235.70
821.58	16885.50
821.76	16795.39
821.94	16912.13
822.12	16791.30
822.29	17012.48
822.47	16602.88
822.65	16781.06
822.83	16862.97
823.01	16830.21
823.19	16666.37
823.36	16447.24
823.54	16572.16
823.72	16742.14
823.90	16709.38
824.08	16584.45
824.25	16463.62
824.43	16590.59
824.61	16529.16
824.79	16541.44
824.97	16150.28
825.15	16310.02
825.32	16668.42
825.50	16396.04
825.68	16269.06
825.86	16326.41
826.04	16367.37
826.21	16105.23
826.39	16264.97
826.57	16094.99
826.75	16107.27
826.93	16113.42
827.10	16246.54
827.28	16090.89
827.46	16303.88
827.64	15703.82
827.81	15931.15
827.99	15959.82
828.17	16058.12
828.35	15863.57
828.53	15925.00
828.70	15781.65
828.88	15742.74
829.06	15853.33
829.24	15873.81
829.41	15777.55
829.59	15628.05
829.77	16058.12
829.95	15841.04
830.12	15826.70
830.30	15525.65
830.48	15746.83
830.66	15701.78
830.84	15531.80
831.01	15494.93
831.19	15603.47
831.37	15683.34
831.55	15247.13
831.72	15529.75
831.90	15302.42
832.08	15320.85
832.25	15308.57
832.43	15419.16
832.61	15226.65
832.79	15124.25
832.96	15255.32
833.14	15218.46
833.32	15341.33
833.50	15249.18
833.67	15341.33
833.85	15066.91
834.03	14923.55
834.20	15238.94
834.38	14948.12
834.56	15202.07
834.74	14870.30
834.91	15228.70
835.09	15073.05
835.27	14751.52
835.44	14905.12
835.62	14829.34
835.80	14769.95
835.98	14952.22
836.15	14755.61
836.33	14763.81
836.51	14790.43
836.68	14894.88
836.86	14708.51
837.04	14653.22
837.21	14831.39
837.39	14849.82
837.57	14753.57
837.75	14751.52
837.92	14698.27
838.10	14536.48
838.28	14315.30
838.45	14227.24
838.63	14597.92
838.81	14450.47
838.98	14573.35
839.16	14313.25
839.34	14210.86
839.51	14241.57
839.69	14241.57
839.87	14417.70
840.04	14169.90
840.22	14284.58
840.40	14288.68
840.57	14085.93
840.75	14255.91
840.93	14059.31
841.10	14112.55
841.28	14075.69
841.46	14112.55
841.63	14309.16
841.81	14147.37
841.98	14307.11
842.16	14073.64
842.34	14188.33
842.51	13844.27
842.69	14071.59
842.87	13905.71
843.04	14112.55
843.22	14008.11
843.40	13946.67
843.57	13852.46
843.75	14053.16
843.92	13915.95
844.10	13778.73
844.28	13811.50
844.45	13868.84
844.63	13651.76
844.81	13467.44
844.98	13659.95
845.16	13584.18
845.33	13676.34
845.51	13655.86
845.69	13651.76
845.86	13393.72
846.04	13616.94
846.21	13768.49
846.39	13668.14
846.57	13352.76
846.74	13469.49
846.92	13403.96
847.09	13299.51
847.27	13309.75
847.45	13764.40
847.62	13569.84
847.80	13459.25
847.97	13332.28
848.15	13598.51
848.32	13264.69
848.50	13227.83
848.68	13436.72
848.85	13354.80
849.03	13170.49
849.20	13340.47
849.38	13084.47
849.56	13272.89
849.73	13145.91
849.91	13006.65
850.08	13254.45
850.26	13035.32
850.43	13248.31
850.61	13197.11
850.78	12965.69
850.96	12898.11
851.14	13006.65
851.31	12951.35
851.49	12969.79
851.66	13049.66
851.84	13066.04
852.01	12930.87
852.19	12861.24
852.36	12883.77
852.54	12820.28
852.71	12922.68
852.89	12822.33
853.07	12781.37
853.24	12930.87
853.42	12740.41
853.59	12914.49
853.77	12726.08
853.94	12556.10
854.12	12691.26
854.29	12617.54
854.47	12789.56
854.64	12732.22
854.82	12750.65
854.99	12691.26
855.17	12717.89
855.34	12603.20
855.52	12519.23
855.69	12742.46
855.87	12382.02
856.04	12363.59
856.22	12517.18
856.39	12721.98
856.57	12695.36
856.74	12379.97
856.92	12330.82
857.09	12339.01
857.27	12410.69
857.44	12355.40
857.62	12355.40
857.79	12300.10
857.97	12269.38
858.14	12498.75
858.32	12322.63
858.49	12244.81
858.67	12228.42
858.84	12097.35
859.02	12140.36
859.19	12150.60
859.37	12037.96
859.54	12052.30
859.72	12015.43
859.89	12054.34
860.06	12089.16
860.24	11910.99
860.41	11978.57
860.59	11904.84
860.76	11984.71
860.94	11892.55
861.11	12109.64
861.29	12025.67
861.46	11870.03
861.64	11687.76
861.81	11986.76
861.98	12058.44
862.16	11810.64
862.33	11716.43
862.51	11669.33
862.68	11794.25
862.86	11833.16
863.03	11652.94
863.21	11947.85
863.38	11755.34
863.55	11663.18
863.73	11771.72
863.90	11646.80
864.08	11593.55
864.25	11497.30
864.43	11632.46
864.60	11544.40
864.77	11360.08
864.95	11538.26
865.12	11448.15
865.30	11325.27
865.47	11476.82
865.64	11544.40
865.82	11509.58
865.99	11663.18
866.17	11263.83
866.34	11341.65
866.51	11411.28
866.69	11470.67
866.86	11442.00
867.04	11364.18
867.21	11360.08
867.38	11224.92
867.56	11169.62
867.73	11102.04
867.91	11163.48
868.08	11134.81
868.25	11220.82
868.43	11165.53
868.60	11194.20
868.78	11011.93
868.95	11214.68
869.12	11153.24
869.30	11022.17
869.47	11124.57
869.64	10948.44
869.82	10921.82
869.99	10725.21
870.16	10893.15
870.34	10923.87
870.51	10952.54
870.69	10823.51
870.86	10968.92
871.03	10725.21
871.21	10780.51
871.38	10854.23
871.55	10899.29
871.73	10776.41
871.90	10805.08
872.07	10753.88
872.25	10674.01
872.42	10594.14
872.59	10542.94
872.77	10596.19
872.94	10594.14
873.11	10399.59
873.29	10590.05
873.46	10631.01
873.63	10458.98
873.81	10590.05
873.98	10450.78
874.15	10289.00
874.33	10383.20
874.50	10264.42
874.67	10325.86
874.85	10342.24
875.02	10278.76
875.19	10084.20
875.37	10354.53
875.54	10127.21
875.71	10043.24
875.88	10112.87
876.06	10159.97
876.23	10151.78
876.40	9951.08
876.58	10311.52
876.75	9877.35
876.92	9979.75
877.10	10180.45
877.27	9777.00
877.44	9834.35
877.61	9967.46
877.79	9891.69
877.96	9858.92
878.13	9949.03
878.31	9914.22
878.48	9877.35
878.65	9805.67
878.82	9793.39
879.00	9709.42
879.17	9834.35
879.34	9779.05
879.51	9871.21
879.69	9631.60
879.86	9789.29
880.03	9619.31
880.21	9709.42
880.38	9588.59
880.55	9652.08
880.72	9678.70
880.90	9576.30
881.07	9574.25
881.24	9512.81
881.41	9652.08
881.59	9723.76
881.76	9559.92
881.93	9584.49
882.10	9635.69
882.28	9508.72
882.45	9555.82
882.62	9389.94
882.79	9455.47
882.96	9451.38
883.14	9351.03
883.31	9248.63
883.48	9527.15
883.65	9283.44
883.83	9275.25
884.00	9355.12
884.17	9258.87
884.34	9346.93
884.51	9312.11
884.69	9250.67
884.86	9301.87
885.03	9336.69
885.20	9125.75
885.38	9217.91
885.55	9072.50
885.72	9211.76
885.89	9295.73
886.06	9269.11
886.24	9088.89
886.41	8986.49
886.58	9179.00
886.75	9385.84
886.92	9031.54
887.10	9058.17
887.27	8970.10
887.44	9199.48
887.61	9199.48
887.78	8961.91
887.95	8980.34
888.13	8800.12
888.30	8947.58
888.47	9033.59
888.64	8820.60
888.81	8968.06
888.99	8898.42
889.16	8972.15
889.33	8775.55
889.50	8884.09
889.67	8859.51
889.84	8963.96
890.01	8820.60
890.19	8877.94
890.36	8806.27
890.53	8740.73
890.70	8664.96
890.87	8685.44
891.04	8853.37
891.22	8720.25
891.39	8640.38
891.56	8634.24
891.73	8845.18
891.90	8726.39
892.07	8628.09
892.24	8636.28
892.42	8691.58
892.59	8628.09
892.76	8642.43
892.93	8624.00
893.10	8521.60
893.27	8636.28
893.44	8447.87
893.61	8621.95
893.79	8482.69
893.96	8531.84
894.13	8638.33
894.30	8525.69
894.47	8443.78
894.64	8697.72
894.81	8365.95
894.98	8331.14
895.15	8380.29
895.33	8492.93
895.50	8353.66
895.67	8335.23
895.84	8482.69
896.01	8384.38
896.18	8423.30
896.35	8546.17
896.52	8492.93
896.69	8191.88
896.86	8560.51
897.04	8318.85
897.21	8357.76
897.38	8337.28
897.55	8392.58
897.72	8331.14
897.89	8322.94
898.06	8327.04
898.23	8439.68
898.40	8202.11
898.57	8402.82
898.74	8345.47
898.91	8359.81
899.08	8400.77
899.26	8515.45
899.43	8269.70
899.60	8210.31
899.77	8408.96
899.94	8224.64
900.11	8222.59
900.28	8277.89
900.45	8316.80
900.62	8179.59
900.79	8462.21
900.96	8210.31
901.13	8277.89
901.30	8355.71
901.47	8265.60
901.64	8224.64
901.81	8216.45
901.98	8136.58
902.15	8175.49
902.32	8155.01
902.49	8210.31
902.66	8167.30
902.83	8222.59
903.01	8224.64
903.18	8195.97
903.35	8165.25
903.52	8257.41
903.69	8177.54
903.86	8341.38
904.03	8175.49
904.20	8134.53
904.37	8279.94
904.54	8191.88
904.71	8200.07
904.88	8230.79
905.05	8019.85
905.22	8218.50
905.39	8085.38
905.56	8179.59
905.73	8013.70
905.90	8058.76
906.07	8054.66
906.24	8171.40
906.41	8048.52
906.58	8210.31
906.75	8195.97
906.92	8038.28
907.09	8089.48
907.26	8097.67
907.43	7964.55
907.60	7999.37
907.77	8023.94
907.93	8112.00
908.10	8255.36
908.27	8118.15
908.44	7915.40
908.61	8044.42
908.78	7911.30
908.95	8030.09
909.12	7856.01
909.29	7999.37
909.46	8091.52
909.63	8028.04
909.80	8069.00
909.97	8013.70
910.14	7960.45
910.31	7886.73
910.48	7858.06
910.65	7950.21
910.82	7925.64
910.99	8017.80
911.16	7884.68
911.33	7858.06
911.50	7946.12
911.66	7929.74
911.83	7980.93
912.00	7892.87
912.17	7696.27
912.34	7757.71
912.51	7868.30
912.68	7755.66
912.85	7890.82
913.02	7899.02
913.19	7935.88
913.36	7782.28
913.53	7839.62
913.70	7544.72
913.86	7653.26
914.03	7743.37
914.20	7827.34
914.37	7606.16
914.54	7495.57
914.71	7638.92
914.88	7530.38
915.05	7620.49
915.22	7509.90
915.39	7407.50
915.55	7587.72
915.72	7530.38
915.89	7479.18
916.06	7323.54
916.23	7378.83
916.40	7317.39
916.57	7434.13
916.74	7329.68
916.91	7227.28
917.07	7327.63
917.24	7225.23
917.41	7264.15
917.58	7227.28
917.75	7460.75
917.92	7149.46
918.09	7174.03
918.26	7206.80
918.42	7233.43
918.59	7133.08
918.76	7139.22
918.93	7038.87
919.10	7253.91
919.27	7221.14
919.44	7219.09
919.60	7221.14
919.77	7030.68
919.94	7098.26
920.11	7102.36
920.28	6850.46
920.45	7028.63
920.61	6870.94
920.78	6842.26
920.95	6989.72
921.12	6836.12
921.29	6811.54
921.46	6813.59
921.62	6815.64
921.79	6778.78
921.96	6858.65
922.13	6688.67
922.30	6719.39
922.47	6530.97
922.63	6723.48
922.80	6641.56
922.97	6563.74
923.14	6506.40
923.31	6645.66
923.47	6549.40
923.64	6647.71
923.81	6621.08
923.98	6535.07
924.15	6338.46
924.32	6457.25
924.48	6461.34
924.65	6379.42
924.82	6430.62
924.99	6207.39
925.15	6264.74
925.32	6207.39
925.49	6195.11
925.66	6381.47
925.83	6148.00
925.99	6094.76
926.16	6184.87
926.33	6139.81
926.50	6051.75
926.67	6121.38
926.83	6004.64
927.00	6121.38
927.17	5949.35
927.34	5935.01
927.50	5980.07
927.67	6047.65
927.84	5955.49
928.01	6039.46
928.17	5838.76
928.34	5898.15
928.51	5705.64
928.68	5752.74
928.84	5799.85
929.01	5885.86
929.18	5756.84
929.35	5666.73
929.51	5758.89
929.68	5603.24
929.85	5621.67
930.02	5638.06
930.18	5529.52
930.35	5605.29
930.52	5480.36
930.69	5597.10
930.85	5435.31
931.02	5500.84
931.19	5459.88
931.36	5506.99
931.52	5550.00
931.69	5337.01
931.86	5304.24
932.02	5265.33
932.19	5550.00
932.36	5359.53
932.53	5248.94
932.69	5275.57
932.86	5230.51
933.03	5210.03
933.19	5066.67
933.36	5095.35
933.53	5160.88
933.70	5113.78
933.86	5089.20
934.03	5113.78
934.20	5001.14
934.36	5132.21
934.53	4951.99
934.70	4992.95
934.86	5007.28
935.03	4790.20
935.20	4861.88
935.36	4714.42
935.53	4868.02
935.70	4835.25
935.86	4722.62
936.03	4714.42
936.20	4741.05
936.36	4583.35
936.53	4542.39
936.70	4571.07
936.86	4448.19
937.03	4497.34
937.20	4267.97
937.36	4442.04
937.53	4339.65
937.70	4442.04
937.86	4241.34
938.03	4310.97
938.20	4280.25
938.36	4253.63
938.53	4300.73
938.70	4210.62
938.86	4067.27
939.03	4116.42
939.20	3960.77
939.36	4003.78
939.53	4050.88
939.70	3934.15
939.86	3815.37
940.03	3772.36
940.19	3760.07
940.36	3809.22
940.53	3821.51
940.69	3661.77
940.86	3729.35
941.03	3620.81
941.19	3524.55
941.36	3528.65
941.52	3547.08
941.69	3409.87
941.86	3551.18
942.02	3471.31
942.19	3362.76
942.35	3542.99
942.52	3391.44
942.69	3418.06
942.85	3325.90
943.02	3377.10
943.18	3381.20
943.35	3289.04
943.52	3315.66
943.68	3293.13
943.85	3174.35
944.01	3235.79
944.18	3221.45
944.35	3188.69
944.51	3141.58
944.68	3084.24
944.84	3104.72
945.01	3123.15
945.17	3108.82
945.34	3127.25
945.51	3141.58
945.67	3125.20
945.84	3121.10
946.00	3100.62
946.17	2955.22
946.33	2942.93
946.50	3055.57
946.67	2967.51
946.83	2961.36
947.00	3080.14
947.16	3016.66
947.33	3008.47
947.49	2998.23
947.66	2877.40
947.82	3033.04
947.99	2938.84
948.16	3096.53
948.32	2977.75
948.49	2928.60
948.65	2949.08
948.82	2985.94
948.98	2940.88
949.15	2877.40
949.31	2994.13
949.48	2928.60
949.64	3082.19
949.81	2987.99
949.97	2953.17
950.14	2969.55
950.30	2893.78
950.47	2977.75
950.63	2961.36
950.80	3049.43
950.96	2951.12
951.13	2959.31
951.30	2953.17
951.46	2957.27
951.63	3033.04
951.79	2899.92
951.96	2893.78
952.12	2871.25
952.29	2975.70
952.45	2992.08
952.62	2893.78
952.78	2840.53
952.94	2861.01
953.11	2912.21
953.27	2893.78
953.44	2918.36
953.60	2883.54
953.77	2904.02
953.93	2854.87
954.10	2805.72
954.26	2963.41
954.43	2805.72
954.59	2967.51
954.76	2893.78
954.92	2861.01
955.09	2875.35
955.25	2883.54
955.42	2842.58
955.58	2852.82
955.75	2840.53
955.91	2836.44
956.07	2965.46
956.24	2908.12
956.40	2920.40
956.57	2912.21
956.73	2854.87
956.90	2987.99
957.06	2881.49
957.23	2787.29
957.39	2760.66
957.56	2848.72
957.72	2793.43
957.88	2879.44
958.05	2852.82
958.21	2813.91
958.38	2818.00
958.54	2850.77
958.71	2840.53
958.87	2791.38
959.03	2754.52
959.20	2783.19
959.36	2779.09
959.53	2742.23
959.69	2715.61
959.85	2836.44
960.02	2705.37
960.18	2656.22
960.35	2672.60
960.51	2818.00
960.68	2803.67
960.84	2824.15
961.00	2830.29
961.17	2781.14
961.33	2766.81
961.50	2762.71
961.66	2709.46
961.82	2738.13
961.99	2770.90
962.15	2709.46
962.31	2693.08
962.48	2729.94
962.64	2625.50
962.81	2756.57
962.97	2715.61
963.13	2754.52
963.30	2748.37
963.46	2742.23
963.62	2701.27
963.79	2656.22
963.95	2699.22
964.12	2674.65
964.28	2695.13
964.44	2678.74
964.61	2723.80
964.77	2754.52
964.93	2772.95
965.10	2740.18
965.26	2668.50
965.42	2568.15
965.59	2676.70
965.75	2637.78
965.92	2770.90
966.08	2815.96
966.24	2670.55
966.41	2684.89
966.57	2736.09
966.73	2631.64
966.90	2709.46
967.06	2707.41
967.22	2693.08
967.39	2711.51
967.55	2643.93
967.71	2660.31
967.88	2533.34
968.04	2566.10
968.20	2559.96
968.37	2629.59
968.53	2492.38
968.69	2643.93
968.85	2551.77
969.02	2572.25
969.18	2611.16
969.34	2660.31
969.51	2580.44
969.67	2594.78
969.83	2566.10
970.00	2797.53
970.16	2652.12
970.32	2615.26
970.48	2619.35
970.65	2527.19
970.81	2586.58
970.97	2576.34
971.14	2545.63
971.30	2559.96
971.46	2570.20
971.63	2576.34
971.79	2625.50
971.95	2580.44
972.11	2422.75
972.28	2652.12
972.44	2551.77
972.60	2590.68
972.76	2557.91
972.93	2559.96
973.09	2605.02
973.25	2465.75
973.42	2441.18
973.58	2539.48
973.74	2525.15
973.90	2533.34
974.07	2508.76
974.23	2570.20
974.39	2473.95
974.55	2471.90
974.72	2488.28
974.88	2445.27
975.04	2557.91
975.20	2488.28
975.37	2549.72
975.53	2490.33
975.69	2529.24
975.85	2461.66
976.01	2437.08
976.18	2467.80
976.34	2459.61
976.50	2535.39
976.66	2428.89
976.83	2439.13
976.99	2494.43
977.15	2494.43
977.31	2389.98
977.47	2443.23
977.64	2377.69
977.80	2512.86
977.96	2435.03
978.12	2500.57
978.29	2381.79
978.45	2396.12
978.61	2383.84
978.77	2402.27
978.93	2410.46
979.10	2404.32
979.26	2496.47
979.42	2396.12
979.58	2443.23
979.74	2471.90
979.91	2363.36
980.07	2369.50
980.23	2338.78
980.39	2367.45
980.55	2385.88
980.71	2355.16
980.88	2387.93
981.04	2324.44
981.20	2396.12
981.36	2283.49
981.52	2385.88
981.68	2420.70
981.85	2398.17
982.01	2377.69
982.17	2277.34
982.33	2340.83
982.49	2455.51
982.65	2287.58
982.82	2306.01
982.98	2414.56
983.14	2308.06
983.30	2252.77
983.46	2213.85
983.62	2281.44
983.79	2334.68
983.95	2236.38
984.11	2242.53
984.27	2330.59
984.43	2289.63
984.59	2342.88
984.75	2361.31
984.91	2215.90
985.08	2295.77
985.24	2226.14
985.40	2263.01
985.56	2211.81
985.72	2355.16
985.88	2258.91
986.04	2263.01
986.20	2287.58
986.37	2203.61
986.53	2234.33
986.69	2193.37
986.85	2205.66
987.01	2222.05
987.17	2252.77
987.33	2248.67
987.49	2226.14
987.65	2283.49
987.82	2226.14
987.98	2199.52
988.14	2174.94
988.30	2193.37
988.46	2273.25
988.62	2217.95
988.78	2136.03
988.94	2289.63
989.10	2246.62
989.26	2125.79
989.42	2263.01
989.59	2174.94
989.75	2109.41
989.91	2248.67
990.07	2166.75
990.23	2181.09
990.39	2150.37
990.55	2222.05
990.71	2156.51
990.87	2164.70
991.03	2209.76
991.19	2232.29
991.35	2222.05
991.51	2179.04
991.67	2189.28
991.83	2170.85
992.00	2226.14
992.16	2152.42
992.32	2142.18
992.48	2256.86
992.64	2138.08
992.80	2148.32
992.96	2033.63
993.12	2160.61
993.28	2181.09
993.44	2136.03
993.60	2127.84
993.76	2074.59
993.92	2148.32
994.08	2129.89
994.24	2138.08
994.40	2082.78
994.56	2209.76
994.72	2031.58
994.88	2101.22
995.04	2138.08
995.20	2154.46
995.36	2021.35
995.52	2183.13
995.68	2195.42
995.84	2078.69
996.00	2133.98
996.16	2029.54
996.32	2123.74
996.48	2052.06
996.64	2088.93
996.80	2142.18
996.96	2101.22
997.12	2070.50
997.28	2138.08
997.44	2101.22
997.60	2156.51
997.76	2144.22
997.92	2035.68
998.08	2078.69
998.24	2090.98
998.40	2084.83
998.56	2076.64
998.72	1976.29
998.88	2142.18
999.04	2007.01
999.20	2111.46
999.36	2054.11
999.52	2127.84
999.68	2131.94
999.84	2066.40
1000.00	1994.72
1000.16	1966.05
1000.32	2025.44
1000.48	2080.74
1000.64	1992.67
1000.80	2054.11
1000.95	1982.43
1001.11	1986.53
1001.27	2023.39
1001.43	1935.33
1001.59	1966.05
1001.75	2033.63
1001.91	2017.25
1002.07	2039.78
1002.23	2009.06
1002.39	2025.44
1002.55	1998.82
1002.71	1988.58
1002.87	2002.91
1003.03	2031.58
1003.19	1914.85
1003.34	2015.20
1003.50	2021.35
1003.66	2068.45
1003.82	1959.91
1003.98	1859.56
1004.14	1916.90
1004.30	1931.23
1004.46	1832.93
1004.62	1945.57
1004.78	1882.08
1004.94	1990.63
1005.09	2027.49
1005.25	1943.52
1005.41	2004.96
1005.57	1988.58
1005.73	1970.15
1005.89	1966.05
1006.05	1994.72
1006.21	1982.43
1006.37	1896.42
1006.52	1943.52
1006.68	1880.04
1006.84	1986.53
1007.00	1837.03
1007.16	1947.62
1007.32	1937.38
1007.48	1904.61
1007.64	1935.33
1007.79	1927.14
1007.95	2013.15
1008.11	1892.32
1008.27	1925.09
1008.43	1968.10
1008.59	1869.80
1008.75	1937.38
1008.91	1896.42
1009.06	1916.90
1009.22	1939.43
1009.38	1925.09
1009.54	1957.86
1009.70	1896.42
1009.86	1890.28
1010.01	1941.47
1010.17	1882.08
1010.33	1941.47
1010.49	1974.24
1010.65	1951.71
1010.81	1863.65
1010.96	1925.09
1011.12	1933.28
1011.28	1849.32
1011.44	1916.90
1011.60	1877.99
1011.76	1914.85
1011.91	1892.32
1012.07	1849.32
1012.23	1857.51
1012.39	1834.98
1012.55	1855.46
1012.71	1925.09
1012.86	1845.22
1013.02	1910.75
1013.18	1781.73
1013.34	1841.12
1013.50	1830.88
1013.65	1898.47
1013.81	1839.08
1013.97	1863.65
1014.13	1865.70
1014.29	1834.98
1014.44	1896.42
1014.60	1822.69
1014.76	1886.18
1014.92	1886.18
1015.07	1818.60
1015.23	1814.50
1015.39	1869.80
1015.55	1851.36
1015.71	1841.12
1015.86	1832.93
1016.02	1832.93
1016.18	1808.36
1016.34	1775.59
1016.49	1816.55
1016.65	1818.60
1016.81	1853.41
1016.97	1826.79
1017.12	1787.88
1017.28	1849.32
1017.44	1845.22
1017.60	1826.79
1017.75	1712.10
1017.91	1814.50
1018.07	1875.94
1018.23	1812.45
1018.38	1763.30
1018.54	1794.02
1018.70	1763.30
1018.86	1728.49
1019.01	1744.87
1019.17	1798.12
1019.33	1867.75
1019.49	1861.60
1019.64	1810.40
1019.80	1802.21
1019.96	1816.55
1020.12	1834.98
1020.27	1796.07
1020.43	1806.31
1020.59	1777.64
1020.74	1830.88
1020.90	1812.45
1021.06	1742.82
1021.22	1798.12
1021.37	1755.11
1021.53	1767.40
1021.69	1843.17
1021.84	1810.40
1022.00	1802.21
1022.16	1781.73
1022.31	1724.39
1022.47	1849.32
1022.63	1738.73
1022.79	1773.54
1022.94	1761.25
1023.10	1783.78
1023.26	1798.12
1023.41	1755.11
1023.57	1720.29
1023.73	1718.25
1023.88	1810.40
1024.04	1708.01
1024.20	1656.81
1024.35	1769.44
1024.51	1730.53
1024.67	1771.49
1024.82	1818.60
1024.98	1810.40
1025.14	1751.01
1025.29	1763.30
1025.45	1714.15
1025.61	1701.86
1025.76	1751.01
1025.92	1751.01
1026.08	1708.01
1026.23	1761.25
1026.39	1769.44
1026.55	1701.86
1026.70	1693.67
1026.86	1677.29
1027.02	1730.53
1027.17	1757.16
1027.33	1681.38
1027.48	1740.77
1027.64	1689.57
1027.80	1779.68
1027.95	1785.83
1028.11	1718.25
1028.27	1718.25
1028.42	1767.40
1028.58	1724.39
1028.73	1816.55
1028.89	1689.57
1029.05	1769.44
1029.20	1800.16
>>>>>End Processed Spectral Data<<<<<
