SpectraSuite Data File
++++++++++++++++++++++++++++++++++++
Date: Tue Jun 13 11:56:49 CEST 2017
User: INFO_000
Dark Spectrum Present: No
Reference Spectrum Present: No
Number of Sampled Component Spectra: 1
Spectrometers: USB4H00879
Integration Time (usec): 30000 (USB4H00879)
Spectra Averaged: 1 (USB4H00879)
Boxcar Smoothing: 0 (USB4H00879)
Correct for Electrical Dark: No (USB4H00879)
Strobe/Lamp Enabled: No (USB4H00879)
Correct for Detector Non-linearity: No (USB4H00879)
Correct for Stray Light: No (USB4H00879)
Number of Pixels in Processed Spectrum: 3648
>>>>>Begin Processed Spectral Data<<<<<
345.13	1337.32
345.34	1337.32
345.56	1337.32
345.78	1357.80
345.99	1413.10
346.21	1511.40
346.42	1566.70
346.64	1439.72
346.86	1591.27
347.07	1492.97
347.29	1540.07
347.50	1462.25
347.72	1562.60
347.94	1556.46
348.15	1480.68
348.37	1445.87
348.59	1525.74
348.80	1458.15
349.02	1560.55
349.23	1687.53
349.45	1624.04
349.67	1624.04
349.88	1560.55
350.10	1652.71
350.31	1601.51
350.53	1566.70
350.75	1617.90
350.96	1611.75
351.18	1615.85
351.39	1564.65
351.61	1595.37
351.82	1683.43
352.04	1691.62
352.26	1603.56
352.47	1681.38
352.69	1656.81
352.90	1566.70
353.12	1617.90
353.34	1613.80
353.55	1642.47
353.77	1628.14
353.98	1630.18
354.20	1642.47
354.41	1683.43
354.63	1611.75
354.85	1699.81
355.06	1636.33
355.28	1558.50
355.49	1683.43
355.71	1660.90
355.92	1609.70
356.14	1556.46
356.35	1660.90
356.57	1609.70
356.79	1636.33
357.00	1593.32
357.22	1613.80
357.43	1576.94
357.65	1720.29
357.86	1683.43
358.08	1665.00
358.29	1642.47
358.51	1687.53
358.72	1685.48
358.94	1658.85
359.16	1654.76
359.37	1644.52
359.59	1685.48
359.80	1685.48
360.02	1650.66
360.23	1656.81
360.45	1658.85
360.66	1646.57
360.88	1640.42
361.09	1648.61
361.31	1710.05
361.52	1703.91
361.74	1689.57
361.95	1660.90
362.17	1685.48
362.38	1726.44
362.60	1705.96
362.81	1669.09
363.03	1708.01
363.24	1710.05
363.46	1705.96
363.67	1767.40
363.89	1810.40
364.10	1705.96
364.32	1695.72
364.53	1722.34
364.75	1611.75
364.96	1654.76
365.18	1738.73
365.39	1716.20
365.61	1753.06
365.82	1736.68
366.04	1755.11
366.25	1697.77
366.47	1658.85
366.68	1595.37
366.90	1746.92
367.11	1716.20
367.33	1847.27
367.54	1755.11
367.76	1744.87
367.97	1746.92
368.19	1724.39
368.40	1685.48
368.62	1656.81
368.83	1665.00
369.05	1734.63
369.26	1761.25
369.48	1742.82
369.69	1734.63
369.91	1767.40
370.12	1808.36
370.33	1753.06
370.55	1677.29
370.76	1669.09
370.98	1767.40
371.19	1753.06
371.41	1746.92
371.62	1740.77
371.84	1818.60
372.05	1769.44
372.27	1773.54
372.48	1775.59
372.69	1740.77
372.91	1906.66
373.12	1820.64
373.34	1775.59
373.55	1824.74
373.77	1828.84
373.98	1810.40
374.20	1791.97
374.41	1865.70
374.62	1894.37
374.84	1796.07
375.05	1931.23
375.27	1855.46
375.48	1875.94
375.70	1849.32
375.91	1892.32
376.12	1927.14
376.34	1877.99
376.55	1777.64
376.77	1855.46
376.98	1789.92
377.19	1837.03
377.41	1828.84
377.62	1808.36
377.84	1941.47
378.05	1908.71
378.27	1843.17
378.48	1964.00
378.69	1968.10
378.91	1855.46
379.12	1892.32
379.34	1937.38
379.55	1947.62
379.76	1914.85
379.98	1914.85
380.19	1980.39
380.41	1970.15
380.62	1937.38
380.83	1896.42
381.05	2002.91
381.26	1984.48
381.47	1935.33
381.69	1972.19
381.90	1982.43
382.12	1884.13
382.33	1972.19
382.54	1976.29
382.76	1974.24
382.97	1961.95
383.19	1918.95
383.40	1992.67
383.61	1908.71
383.83	1964.00
384.04	2000.87
384.25	1992.67
384.47	1920.99
384.68	2039.78
384.89	2017.25
385.11	1910.75
385.32	2004.96
385.54	1974.24
385.75	1982.43
385.96	2060.26
386.18	2131.94
386.39	2041.82
386.60	2068.45
386.82	2125.79
387.03	2090.98
387.24	2127.84
387.46	2097.12
387.67	2170.85
387.88	2103.26
388.10	2140.13
388.31	2107.36
388.52	2197.47
388.74	2166.75
388.95	2127.84
389.16	2162.66
389.38	2086.88
389.59	2201.57
389.80	2164.70
390.02	2107.36
390.23	2209.76
390.44	2164.70
390.66	2195.42
390.87	2187.23
391.08	2183.13
391.30	2287.58
391.51	2211.81
391.72	2297.82
391.94	2201.57
392.15	2217.95
392.36	2267.10
392.58	2224.09
392.79	2285.53
393.00	2217.95
393.22	2297.82
393.43	2293.72
393.64	2363.36
393.85	2336.73
394.07	2265.05
394.28	2363.36
394.49	2377.69
394.71	2252.77
394.92	2480.09
395.13	2385.88
395.35	2367.45
395.56	2344.92
395.77	2383.84
395.98	2424.80
396.20	2437.08
396.41	2426.84
396.62	2541.53
396.84	2389.98
397.05	2379.74
397.26	2453.47
397.47	2504.67
397.69	2355.16
397.90	2523.10
398.11	2484.19
398.32	2469.85
398.54	2453.47
398.75	2478.04
398.96	2527.19
399.18	2545.63
399.39	2633.69
399.60	2570.20
399.81	2541.53
400.03	2559.96
400.24	2547.67
400.45	2473.95
400.66	2523.10
400.88	2545.63
401.09	2609.11
401.30	2617.30
401.51	2623.45
401.73	2600.92
401.94	2633.69
402.15	2633.69
402.36	2639.83
402.58	2703.32
402.79	2652.12
403.00	2805.72
403.21	2725.85
403.43	2650.07
403.64	2691.03
403.85	2656.22
404.06	2717.65
404.27	2719.70
404.49	2723.80
404.70	2734.04
404.91	2727.89
405.12	2803.67
405.34	2713.56
405.55	2863.06
405.76	2809.81
405.97	2824.15
406.19	2850.77
406.40	2832.34
406.61	2750.42
406.82	2854.87
407.03	2844.63
407.25	2844.63
407.46	2899.92
407.67	2920.40
407.88	2889.68
408.09	2799.57
408.31	2920.40
408.52	2861.01
408.73	2850.77
408.94	2785.24
409.15	2981.84
409.37	2930.64
409.58	3039.19
409.79	3033.04
410.00	2996.18
410.21	2981.84
410.43	2785.24
410.64	2938.84
410.85	2979.79
411.06	3024.85
411.27	2987.99
411.48	3020.75
411.70	3162.06
411.91	3082.19
412.12	2963.41
412.33	3037.14
412.54	3024.85
412.76	3162.06
412.97	3104.72
413.18	3049.43
413.39	3006.42
413.60	3137.49
413.81	3221.45
414.03	3184.59
414.24	3131.34
414.45	3248.08
414.66	3137.49
414.87	3334.09
415.08	3147.73
415.30	3184.59
415.51	3147.73
415.72	3180.50
415.93	3237.84
416.14	3252.17
416.35	3186.64
416.56	3317.71
416.78	3346.38
416.99	3321.81
417.20	3235.79
417.41	3289.04
417.62	3260.37
417.83	3250.13
418.04	3305.42
418.26	3520.46
418.47	3217.36
418.68	3387.34
418.89	3364.81
419.10	3471.31
419.31	3413.96
419.52	3588.04
419.73	3409.87
419.95	3510.22
420.16	3411.92
420.37	3520.46
420.58	3448.78
420.79	3432.40
421.00	3502.03
421.21	3518.41
421.42	3516.36
421.63	3481.55
421.85	3538.89
422.06	3633.10
422.27	3518.41
422.48	3520.46
422.69	3655.62
422.90	3686.34
423.11	3727.30
423.32	3725.26
423.53	3848.13
423.75	3760.07
423.96	3803.08
424.17	3766.21
424.38	3858.37
424.59	3966.92
424.80	3858.37
425.01	3909.57
425.22	3788.74
425.43	3891.14
425.64	4014.02
425.85	3971.01
426.06	3874.76
426.28	3938.24
426.49	3901.38
426.70	3983.30
426.91	3938.24
427.12	4009.92
427.33	4011.97
427.54	3995.59
427.75	4104.13
427.96	4163.52
428.17	4014.02
428.38	4218.82
428.59	4235.20
428.80	4069.31
429.01	4224.96
429.23	4216.77
429.44	4345.79
429.65	4241.34
429.86	4384.70
430.07	4272.06
430.28	4190.14
430.49	4421.56
430.70	4368.32
430.91	4396.99
431.12	4339.65
431.33	4515.77
431.54	4499.39
431.75	4431.80
431.96	4261.82
432.17	4450.24
432.38	4394.94
432.59	4523.96
432.80	4487.10
433.01	4562.87
433.22	4685.75
433.43	4562.87
433.64	4528.06
433.85	4575.16
434.06	4693.94
434.27	4593.59
434.49	4667.32
434.70	4763.58
434.91	4689.85
435.12	4724.66
435.33	4763.58
435.54	4792.25
435.75	4700.09
435.96	4798.39
436.17	4677.56
436.38	4835.25
436.59	4831.16
436.80	4954.04
437.01	5089.20
437.22	5011.38
437.43	4978.61
437.64	4730.81
437.85	5042.10
438.06	5017.52
438.27	5087.15
438.48	5044.15
438.69	5035.96
438.90	5085.11
439.11	5066.67
439.32	5044.15
439.53	5201.84
439.74	5212.08
439.95	5187.50
440.16	5175.22
440.37	5242.80
440.57	5238.70
440.78	5234.61
440.99	5363.63
441.20	5281.71
441.41	5240.75
441.62	5318.57
441.83	5232.56
442.04	5420.97
442.25	5429.17
442.46	5324.72
442.67	5441.45
442.88	5779.37
443.09	5318.57
443.30	5425.07
443.51	5406.64
443.72	5509.04
443.93	5560.24
444.14	5627.82
444.35	5463.98
444.56	5552.04
444.77	5674.92
444.98	5681.07
445.19	5621.67
445.40	5666.73
445.61	5541.80
445.81	5621.67
446.02	5683.11
446.23	5697.45
446.44	5805.99
446.65	5629.87
446.86	5621.67
447.07	5775.27
447.28	5932.97
447.49	5918.63
447.70	5668.78
447.91	5789.61
448.12	5994.40
448.33	5988.26
448.54	5998.50
448.74	6004.64
448.95	5912.49
449.16	5873.57
449.37	6059.94
449.58	6012.84
449.79	6258.59
450.00	6047.65
450.21	6064.04
450.42	6199.20
450.63	6164.39
450.84	6137.76
451.05	6188.96
451.25	6330.27
451.46	6211.49
451.67	6102.95
451.88	6358.94
452.09	6432.67
452.30	6193.06
452.51	6436.77
452.72	6530.97
452.93	6563.74
453.13	6340.51
453.34	6389.66
453.55	6326.18
453.76	6457.25
453.97	6707.10
454.18	6561.69
454.39	6713.24
454.60	6627.23
454.81	6670.23
455.01	6848.41
455.22	6610.84
455.43	6670.23
455.64	6948.76
455.85	6950.81
456.06	6938.52
456.27	6688.67
456.48	6823.83
456.68	6915.99
456.89	7145.36
457.10	7014.29
457.31	7055.25
457.52	7081.88
457.73	7133.08
457.94	7456.65
458.14	7137.17
458.35	7442.32
458.56	7409.55
458.77	7368.59
458.98	7288.72
459.19	7208.85
459.39	7313.30
459.60	7663.50
459.81	7456.65
460.02	7532.43
460.23	7466.89
460.44	7643.02
460.65	7827.34
460.85	7735.18
461.06	7788.43
461.27	7520.14
461.48	7827.34
461.69	7931.78
461.89	7724.94
462.10	7884.68
462.31	7806.86
462.52	8007.56
462.73	7993.22
462.94	8099.72
463.14	8030.09
463.35	8093.57
463.56	8431.49
463.77	8384.38
463.98	8163.20
464.18	8204.16
464.39	8281.99
464.60	8568.70
464.81	8607.61
465.02	8394.62
465.23	8513.41
465.43	8417.15
465.64	8699.77
465.85	8755.07
466.06	8568.70
466.27	8941.43
466.47	8886.14
466.68	8927.10
466.89	8863.61
467.10	8961.91
467.30	8937.34
467.51	8949.62
467.72	9217.91
467.93	9019.25
468.14	9222.00
468.34	9363.31
468.55	9262.96
468.76	9383.79
468.97	9252.72
469.17	9414.51
469.38	9381.74
469.59	9650.03
469.80	9402.22
470.01	9543.53
470.21	9832.30
470.42	9729.90
470.63	9805.67
470.84	9785.19
471.04	9918.31
471.25	9928.55
471.46	10256.23
471.67	10155.88
471.87	10225.51
472.08	10229.60
472.29	10295.14
472.50	10069.86
472.70	10413.92
472.91	10575.71
473.12	10522.46
473.33	10631.01
473.53	10688.35
473.74	10616.67
473.95	10659.68
474.16	10854.23
474.36	11147.09
474.57	10975.06
474.78	11263.83
474.99	11081.56
475.19	11003.74
475.40	11355.99
475.61	11499.34
475.81	11556.69
476.02	11706.19
476.23	11384.66
476.44	11763.53
476.64	12033.86
476.85	11943.75
477.06	12052.30
477.27	12257.09
477.47	12126.02
477.68	12259.14
477.89	12468.03
478.09	12427.07
478.30	12314.44
478.51	12519.23
478.71	12701.50
478.92	12502.85
479.13	12658.49
479.34	12844.86
479.54	12896.06
479.75	13051.70
479.96	12967.74
480.16	12982.07
480.37	13244.21
480.58	13451.06
480.78	13412.15
480.99	13348.66
481.20	13657.90
481.41	13711.15
481.61	13870.89
481.82	13801.26
482.03	13715.25
482.23	13877.04
482.44	13801.26
482.65	14108.46
482.85	13975.34
483.06	14217.00
483.27	14081.83
483.47	14104.36
483.68	14395.17
483.89	14647.07
484.09	14399.27
484.30	15058.71
484.51	15009.56
484.71	15030.04
484.92	14991.13
485.13	15130.39
485.33	15257.37
485.54	15159.06
485.75	15290.13
485.95	15374.10
486.16	15570.71
486.37	15683.34
486.57	15632.15
486.78	15605.52
486.98	15841.04
487.19	15707.92
487.40	15828.75
487.60	15961.87
487.81	16320.26
488.02	16103.18
488.22	15990.54
488.43	16486.15
488.64	16273.16
488.84	16527.11
489.05	16512.77
489.25	16756.48
489.46	16877.31
489.67	16742.14
489.87	16899.84
490.08	16922.37
490.29	16975.61
490.49	17329.91
490.70	17313.53
490.90	17442.55
491.11	17204.99
491.32	17463.03
491.52	17499.89
491.73	17676.02
491.94	17712.88
492.14	17467.13
492.35	18058.99
492.55	18128.62
492.76	17919.73
492.97	18036.46
493.17	18122.48
493.38	18145.00
493.58	18353.90
493.79	18214.63
494.00	18302.70
494.20	18470.63
494.41	18495.21
494.61	18527.97
494.82	18826.98
495.02	18736.87
495.23	18863.84
495.44	18792.16
495.64	18822.88
495.85	18929.38
496.05	19343.06
496.26	19150.56
496.47	19381.98
496.67	19281.63
496.88	19691.22
497.08	19556.05
497.29	19902.16
497.49	19537.62
497.70	19756.75
497.91	19982.03
498.11	19721.94
498.32	20100.81
498.52	19945.17
498.73	20477.64
498.93	20082.38
499.14	20176.59
499.34	20405.96
499.55	20311.75
499.76	20303.56
499.96	20324.04
500.17	20524.74
500.37	20625.09
500.58	20766.40
500.78	20600.52
500.99	21001.92
501.19	20811.46
501.40	21061.31
501.60	20948.67
501.81	20940.48
502.02	21040.83
502.22	20860.61
502.43	21151.42
502.63	21161.66
502.84	21395.13
503.04	21429.94
503.25	21442.23
503.45	21233.34
503.66	21731.00
503.86	21614.26
504.07	21739.19
504.27	21675.70
504.48	22208.17
504.68	21823.16
504.89	22025.90
505.09	22105.77
505.30	21941.94
505.50	21937.84
505.71	22064.82
505.91	22361.77
506.12	22247.08
506.32	22255.28
506.53	22320.81
506.73	22544.04
506.94	22421.16
507.14	22361.77
507.35	22572.71
507.55	22503.08
507.76	22628.01
507.96	22290.09
508.17	22789.80
508.37	22617.77
508.58	22646.44
508.78	22656.68
508.99	22826.66
509.19	22814.37
509.40	23164.57
509.60	23008.93
509.81	23008.93
510.01	23193.25
510.22	22783.65
510.42	23258.78
510.63	23094.94
510.83	23291.55
511.04	23406.23
511.24	23707.29
511.44	23428.76
511.65	23473.82
511.85	23426.71
512.06	23590.55
512.26	23692.95
512.47	23627.42
512.67	23852.69
512.88	23748.25
513.08	23441.05
513.29	23707.29
513.49	24041.11
513.69	23832.21
513.90	23926.42
514.10	23975.57
514.31	24100.50
514.51	24290.96
514.72	24026.77
514.92	24047.25
515.13	24432.27
515.33	24211.09
515.53	24505.99
515.74	24374.92
515.94	24534.67
516.15	24678.02
516.35	24307.34
516.56	24559.24
516.76	24473.23
516.96	24563.34
517.17	24897.16
517.37	24923.78
517.58	24811.14
517.78	24925.83
517.99	24555.15
518.19	24934.02
518.39	25214.59
518.60	25255.55
518.80	25167.49
519.01	25218.69
519.21	25319.04
519.41	25437.82
519.62	25151.10
519.82	25671.29
520.03	25532.03
520.23	25347.71
520.43	25431.68
520.64	25689.72
520.84	25818.74
521.05	25421.44
521.25	25806.45
521.45	25771.64
521.66	26001.01
521.86	25824.89
522.07	26140.27
522.27	26062.45
522.47	25962.10
522.68	26340.97
522.88	25994.87
523.08	26295.92
523.29	26492.52
523.49	26449.52
523.70	26267.25
523.90	26517.10
524.10	26756.71
524.31	26607.21
524.51	26742.38
524.71	26740.33
524.92	26877.54
525.12	27244.13
525.33	27049.57
525.53	27211.36
525.73	27307.62
525.94	27207.26
526.14	27571.80
526.34	27383.39
526.55	27639.39
526.75	27309.66
526.95	27416.16
527.16	27645.53
527.36	27012.71
527.56	27553.37
527.77	27618.91
527.97	27635.29
528.17	27948.63
528.38	27958.87
528.58	27889.24
528.78	28294.74
528.99	28165.71
529.19	28528.20
529.39	28106.32
529.60	28548.68
529.80	28323.41
530.00	28300.88
530.21	28571.21
530.41	28812.87
530.61	28577.36
530.82	28550.73
531.02	28493.39
531.22	28917.32
531.43	28769.86
531.63	28866.12
531.83	28958.28
532.04	29394.50
532.24	29161.03
532.44	29570.62
532.64	29242.95
532.85	29632.06
533.05	29324.86
533.25	29425.22
533.46	29933.11
533.66	30082.61
533.86	29713.98
534.07	30002.74
534.27	29736.51
534.47	29939.26
534.67	30086.71
534.88	30217.78
535.08	30125.62
535.28	30410.29
535.49	30385.71
535.69	30901.80
535.89	30570.03
536.09	30805.55
536.30	30807.59
536.50	30723.63
536.70	30817.83
536.91	30582.32
537.11	30844.46
537.31	30793.26
537.51	30942.76
537.72	31510.05
537.92	31358.50
538.12	31477.28
538.32	31272.48
538.53	31387.17
538.73	31182.37
538.93	31344.16
539.13	31563.29
539.34	31460.90
539.54	31790.62
539.74	31671.84
539.94	31657.50
540.15	31731.23
540.35	31929.88
540.55	31878.68
540.75	32015.90
540.96	32024.09
541.16	32003.61
541.36	32200.21
541.56	32273.94
541.77	32437.78
541.97	32693.77
542.17	32699.92
542.37	32695.82
542.58	32587.28
542.78	32605.71
542.98	32624.14
543.18	33011.21
543.38	32898.57
543.59	32826.89
543.79	32808.46
543.99	32808.46
544.19	32656.91
544.40	32763.40
544.60	33109.51
544.80	32704.01
545.00	33273.35
545.20	33570.30
545.41	33089.03
545.61	33361.41
545.81	33463.81
546.01	33082.89
546.21	33474.05
546.42	33205.77
546.62	33191.43
546.82	33549.82
547.02	33902.07
547.22	33463.81
547.43	33433.09
547.63	33637.89
547.83	33601.02
548.03	33832.44
548.23	33715.71
548.44	33824.25
548.64	33996.28
548.84	33756.67
549.04	33975.80
549.24	34168.31
549.45	34239.99
549.65	34119.16
549.85	34229.75
550.05	34276.85
550.25	34063.86
550.45	34684.40
550.66	34661.87
550.86	34371.06
551.06	34213.37
551.26	34455.03
551.46	34414.07
551.66	34680.30
551.87	34360.82
552.07	34291.19
552.27	34760.17
552.47	34680.30
552.67	34786.80
552.87	34807.28
553.07	34790.89
553.28	34856.43
553.48	34485.75
553.68	34805.23
553.88	35247.59
554.08	34770.41
554.28	35132.90
554.48	34985.45
554.69	34883.05
554.89	35071.46
555.09	35304.93
555.29	35067.37
555.49	35190.25
555.69	35108.33
555.89	34858.48
556.10	35505.63
556.30	34819.56
556.50	35358.18
556.70	35286.50
556.90	35296.74
557.10	35333.60
557.30	34928.11
557.50	35587.55
557.70	35368.42
557.91	35509.73
558.11	35597.79
558.31	35732.96
558.51	35497.44
558.71	35458.53
558.91	35638.75
559.11	35556.83
559.31	35677.66
559.51	35577.31
559.72	35700.19
559.92	35960.28
560.12	35597.79
560.32	36025.82
560.52	35780.06
560.72	35898.84
560.92	36154.84
561.12	35741.15
561.32	36369.88
561.52	35728.86
561.72	36081.11
561.93	35874.27
562.13	35868.12
562.33	35759.58
562.53	36183.51
562.73	36021.72
562.93	36412.88
563.13	36019.67
563.33	35925.47
563.53	36482.52
563.73	36070.87
563.93	36298.20
564.13	36554.19
564.33	36232.66
564.53	36531.67
564.74	36345.30
564.94	36324.82
565.14	36605.39
565.34	36300.25
565.54	36664.78
565.74	36298.20
565.94	36918.73
566.14	36468.18
566.34	36625.87
566.54	36758.99
566.74	36341.21
566.94	36552.15
567.14	36459.99
567.34	36439.51
567.54	36498.90
567.74	36402.64
567.94	36451.80
568.14	36724.18
568.34	36668.88
568.54	36644.30
568.74	36347.35
568.94	36685.26
569.14	37187.02
569.34	36906.44
569.54	36840.91
569.75	36699.60
569.95	36920.78
570.15	37023.18
570.35	37062.09
570.55	36955.60
570.75	36781.52
570.95	37199.30
571.15	37635.52
571.35	37135.82
571.55	37418.44
571.75	37324.23
571.95	37402.05
572.15	36892.11
572.35	37170.63
572.55	36931.02
572.75	37021.13
572.95	37262.79
573.15	37434.82
573.35	37647.81
573.55	37426.63
573.75	37406.15
573.95	37197.26
574.15	37705.15
574.35	37391.81
574.55	37705.15
574.75	37447.11
574.95	37926.33
575.15	37580.23
575.34	37545.41
575.54	37772.74
575.74	37936.57
575.94	38032.83
576.14	37690.82
576.34	38116.79
576.54	38503.86
576.74	38067.64
576.94	37981.63
577.14	37893.57
577.34	38133.18
577.54	37746.11
577.74	38260.15
577.94	38145.47
578.14	38266.30
578.34	38559.16
578.54	37967.29
578.74	38186.43
578.94	38878.64
579.14	38153.66
579.34	38198.71
579.54	38229.43
579.74	38770.10
579.94	38540.72
580.13	38473.14
580.33	38825.39
580.53	38608.31
580.73	38608.31
580.93	38841.78
581.13	38442.42
581.33	38464.95
581.53	38923.69
581.73	38761.90
581.93	39142.83
582.13	38485.43
582.33	39146.92
582.53	38931.89
582.73	39134.63
582.92	38935.98
583.12	38954.41
583.32	38809.01
583.52	39062.96
583.72	39142.83
583.92	39013.80
584.12	39384.49
584.32	39390.63
584.52	39398.82
584.72	39337.38
584.92	39185.83
585.11	39450.02
585.31	39554.47
585.51	39462.31
585.71	39687.59
585.91	39699.87
586.11	39241.13
586.31	39378.34
586.51	39464.36
586.71	39230.89
586.91	39814.56
587.10	39959.97
587.30	39669.15
587.50	39943.58
587.70	39828.90
587.90	39701.92
588.10	40060.32
588.30	39945.63
588.50	40095.13
588.69	40254.87
588.89	40043.93
589.09	40301.98
589.29	40502.68
589.49	40240.54
589.69	40132.00
589.89	40179.10
590.08	40431.00
590.28	40502.68
590.48	39962.01
590.68	40332.70
590.88	39994.78
591.08	39843.23
591.28	40052.12
591.47	40246.68
591.67	40291.74
591.87	40295.83
592.07	40431.00
592.27	40490.39
592.47	40615.32
592.67	40474.01
592.86	40572.31
593.06	40813.97
593.26	40488.34
593.46	40598.93
593.66	40369.56
593.86	40875.41
594.05	40658.32
594.25	40859.02
594.45	40402.33
594.65	40400.28
594.85	40562.07
595.05	40873.36
595.24	40961.42
595.44	40660.37
595.64	40967.57
595.84	41100.68
596.04	40809.87
596.23	41002.38
596.43	41108.88
596.63	40899.98
596.83	41160.08
597.03	41072.01
597.22	41522.57
597.42	41151.88
597.62	41160.08
597.82	41233.80
598.02	41553.29
598.21	41753.99
598.41	41489.80
598.61	41553.29
598.81	41252.23
599.01	41495.94
599.20	41295.24
599.40	41534.85
599.60	41680.26
599.80	42007.94
600.00	41332.11
600.19	41993.60
600.39	41274.76
600.59	42044.80
600.79	42130.81
600.98	41778.56
601.18	41862.53
601.38	41614.72
601.58	42149.24
601.78	41780.61
601.97	41807.23
602.17	41899.39
602.37	42360.19
602.57	42251.64
602.76	42222.97
602.96	41887.10
603.16	42409.34
603.36	42159.48
603.55	42147.20
603.75	42100.09
603.95	42554.74
604.15	42030.46
604.34	42083.71
604.54	42302.84
604.74	42319.23
604.94	42173.82
605.13	42417.53
605.33	42288.51
605.53	41973.12
605.73	42696.05
605.92	42616.18
606.12	42556.79
606.32	42704.24
606.52	42317.18
606.71	42800.50
606.91	42816.88
607.11	42732.92
607.30	42573.17
607.50	42939.76
607.70	42857.84
607.90	42605.94
608.09	42661.24
608.29	42868.08
608.49	42751.35
608.68	42777.97
608.88	42923.38
609.08	42831.22
609.28	42626.42
609.47	42644.85
609.67	43001.20
609.87	42839.41
610.06	43107.69
610.26	43150.70
610.46	42734.96
610.66	43005.30
610.85	42874.23
611.05	42718.58
611.25	43359.59
611.44	42853.75
611.64	43279.72
611.84	42642.81
612.03	42769.78
612.23	42638.71
612.43	43396.46
612.62	42681.72
612.82	43152.75
613.02	43005.30
613.21	43056.50
613.41	42605.94
613.61	42921.33
613.80	42974.58
614.00	42689.91
614.20	43019.63
614.39	42667.38
614.59	42739.06
614.79	42958.19
614.98	43132.27
615.18	42886.51
615.38	43142.51
615.57	42823.03
615.77	42829.17
615.97	43074.93
616.16	43361.64
616.36	42765.68
616.56	42997.10
616.75	43148.65
616.95	42661.24
617.15	42882.42
617.34	43115.89
617.54	42886.51
617.74	43122.03
617.93	42952.05
618.13	42550.65
618.32	42689.91
618.52	42792.31
618.72	42782.07
618.91	42913.14
619.11	42505.59
619.31	43048.30
619.50	42796.40
619.70	42687.86
619.90	42937.71
620.09	42655.09
620.29	42704.24
620.48	42360.19
620.68	43079.02
620.88	42413.43
621.07	42739.06
621.27	42732.92
621.46	42390.91
621.66	42263.93
621.86	42567.03
622.05	42386.81
622.25	42833.27
622.44	42425.72
622.64	42104.19
622.84	42587.51
623.03	42448.25
623.23	42655.09
623.42	42093.95
623.62	42837.36
623.82	42788.21
624.01	42186.11
624.21	42493.30
624.40	41964.93
624.60	42585.46
624.80	42237.31
624.99	42356.09
625.19	42116.48
625.38	42470.78
625.58	42216.83
625.77	42405.24
625.97	42427.77
626.17	42108.29
626.36	42470.78
626.56	42356.09
626.75	41788.80
626.95	42075.52
627.14	42546.55
627.34	42425.72
627.54	42261.88
627.73	42157.44
627.93	42214.78
628.12	41663.88
628.32	41934.21
628.51	42085.76
628.71	42304.89
628.90	41837.95
629.10	42071.42
629.30	41964.93
629.49	42294.65
629.69	42220.92
629.88	42141.05
630.08	42255.74
630.27	42341.75
630.47	42466.68
630.66	41870.72
630.86	42337.66
631.05	41934.21
631.25	42564.98
631.44	42075.52
631.64	42337.66
631.84	41932.16
632.03	42360.19
632.23	42077.57
632.42	42177.92
632.62	42143.10
632.81	41780.61
633.01	42229.12
633.20	42075.52
633.40	42032.51
633.59	42091.90
633.79	41506.18
633.98	41760.13
634.18	42288.51
634.37	42241.40
634.57	41934.21
634.76	42036.61
634.96	42063.23
635.15	42055.04
635.35	41944.45
635.54	41524.61
635.74	42003.84
635.93	41690.50
636.13	41858.43
636.32	41895.30
636.52	41858.43
636.71	41747.84
636.91	41887.10
637.10	41655.68
637.30	41977.22
637.49	41622.92
637.69	41528.71
637.88	41706.88
638.08	41825.67
638.27	41672.07
638.46	42077.57
638.66	41911.68
638.85	41938.30
639.05	41469.32
639.24	42157.44
639.44	41817.47
639.63	41422.22
639.83	42026.37
640.02	41981.31
640.22	41604.49
640.41	42091.90
640.61	41457.03
640.80	41786.75
640.99	41538.95
641.19	41764.23
641.38	41758.08
641.58	41573.77
641.77	41485.70
641.97	41645.44
642.16	41858.43
642.36	41829.76
642.55	41805.19
642.74	41690.50
642.94	41923.97
643.13	41708.93
643.33	41731.46
643.52	42096.00
643.72	42093.95
643.91	41751.94
644.10	41739.65
644.30	41829.76
644.49	41633.16
644.69	41727.36
644.88	42005.89
645.08	41366.92
645.27	41872.77
645.46	41749.89
645.66	41895.30
645.85	41440.65
646.05	41751.94
646.24	41930.11
646.43	41676.16
646.63	42024.32
646.82	41942.40
647.02	42001.79
647.21	42005.89
647.40	41870.72
647.60	41895.30
647.79	42155.39
647.99	41676.16
648.18	41684.36
648.37	42055.04
648.57	41899.39
648.76	41753.99
648.96	41500.04
649.15	41903.49
649.34	41686.40
649.54	41876.86
649.73	41768.32
649.92	41706.88
650.12	41629.06
650.31	41516.42
650.51	41741.70
650.70	42079.61
650.89	41786.75
651.09	42167.68
651.28	42190.20
651.47	41913.73
651.67	41637.25
651.86	42169.72
652.06	41358.73
652.25	41708.93
652.44	41805.19
652.64	42104.19
652.83	41579.91
653.02	41303.43
653.22	41641.35
653.41	41661.83
653.60	41336.20
653.80	41334.15
653.99	41543.05
654.18	41252.23
654.38	41317.77
654.57	41516.42
654.76	41514.37
654.96	41311.63
655.15	41758.08
655.34	41411.98
655.54	41276.81
655.73	41682.31
655.92	41567.62
656.12	41325.96
656.31	41596.29
656.50	41555.33
656.70	41561.48
656.89	41368.97
657.08	41543.05
657.28	41444.74
657.47	41457.03
657.66	41514.37
657.86	41317.77
658.05	41811.33
658.24	41434.50
658.43	41231.75
658.63	41471.37
658.82	41450.89
659.01	41946.50
659.21	41600.39
659.40	41571.72
659.59	41424.26
659.79	41805.19
659.98	41497.99
660.17	41704.84
660.36	40895.89
660.56	41586.05
660.75	41690.50
660.94	41246.09
661.14	41182.60
661.33	41471.37
661.52	41205.13
661.71	41600.39
661.91	40940.94
662.10	40932.75
662.29	41205.13
662.49	41395.59
662.68	41366.92
662.87	41158.03
663.06	41368.97
663.26	41151.88
663.45	41600.39
663.64	41235.85
663.83	41569.67
664.03	41598.34
664.22	41399.69
664.41	41358.73
664.60	41178.51
664.80	41127.31
664.99	40947.09
665.18	41303.43
665.37	41362.82
665.57	41414.02
665.76	41041.29
665.95	41332.11
666.14	41100.68
666.34	41035.15
666.53	40691.09
666.72	41250.19
666.91	40830.35
667.11	41006.48
667.30	40637.84
667.49	40871.31
667.68	40795.54
667.87	40748.43
668.07	40830.35
668.26	40830.35
668.45	40902.03
668.64	40822.16
668.84	41059.73
669.03	41303.43
669.22	40867.22
669.41	41135.50
669.60	40807.83
669.80	40746.39
669.99	40877.46
670.18	41004.43
670.37	40826.26
670.57	40863.12
670.76	40609.17
670.95	40830.35
671.14	40797.59
671.33	40287.64
671.53	40949.14
671.72	40713.62
671.91	40764.82
672.10	40314.26
672.29	40895.89
672.48	40834.45
672.68	40705.43
672.87	40500.63
673.06	40379.80
673.25	40314.26
673.44	40408.47
673.64	40633.75
673.83	40482.20
674.02	40496.53
674.21	40633.75
674.40	40600.98
674.59	40299.93
674.79	40449.43
674.98	40299.93
675.17	40856.98
675.36	40242.59
675.55	40588.69
675.74	40261.02
675.94	40218.01
676.13	40062.36
676.32	40543.64
676.51	40523.16
676.70	40220.06
676.89	40041.88
677.08	40109.47
677.28	39878.05
677.47	40263.07
677.66	40263.07
677.85	40512.92
678.04	40453.53
678.23	40056.22
678.42	40287.64
678.62	40021.41
678.81	39998.88
679.00	40027.55
679.19	40811.92
679.38	40168.86
679.57	39986.59
679.76	40201.63
679.96	40054.17
680.15	40404.38
680.34	39826.85
680.53	39570.85
680.72	40254.87
680.91	40134.04
681.10	39722.40
681.29	39941.53
681.48	39761.31
681.68	39585.19
681.87	39830.94
682.06	39689.63
682.25	39517.60
682.44	39763.36
682.63	39558.56
682.82	39538.08
683.01	39615.91
683.20	39400.87
683.39	39482.79
683.59	39445.93
683.78	39288.23
683.97	38968.75
684.16	39425.45
684.35	39531.94
684.54	39466.41
684.73	38954.41
684.92	39087.53
685.11	39142.83
685.30	39114.16
685.49	39183.79
685.69	39329.19
685.88	39306.66
686.07	38704.56
686.26	39042.48
686.45	38938.03
686.64	39214.51
686.83	39108.01
687.02	39286.18
687.21	38983.09
687.40	39056.81
687.59	38866.35
687.78	38878.64
687.97	38968.75
688.16	38794.67
688.35	38786.48
688.54	38745.52
688.74	38698.42
688.93	38940.08
689.12	38477.24
689.31	38856.11
689.50	38591.92
689.69	38436.28
689.88	38444.47
690.07	38553.01
690.26	38442.42
690.45	38675.89
690.64	38557.11
690.83	38643.12
691.02	38362.55
691.21	38450.61
691.40	38405.56
691.59	38725.04
691.78	38352.31
691.97	38458.81
692.16	38553.01
692.35	38811.06
692.54	38362.55
692.73	38747.57
692.92	38184.38
693.11	38073.79
693.30	38143.42
693.49	38208.95
693.68	38063.55
693.87	38206.90
694.06	37653.95
694.25	38331.83
694.44	38065.60
694.63	38325.69
694.82	38147.51
695.01	37938.62
695.20	37705.15
695.39	37897.66
695.58	37924.29
695.77	37785.02
695.96	37739.97
696.15	37868.99
696.34	37645.76
696.53	37426.63
696.72	38084.03
696.91	37475.78
697.10	37520.84
697.29	37406.15
697.48	37670.34
697.67	37447.11
697.86	37737.92
698.05	37404.10
698.24	37645.76
698.43	37072.33
698.62	37371.33
698.81	37281.22
699.00	37617.09
699.19	37066.19
699.38	37053.90
699.57	37062.09
699.76	37582.27
699.95	37135.82
700.14	37191.11
700.32	36931.02
700.51	36982.22
700.70	37471.68
700.89	36980.17
701.08	36797.90
701.27	36740.56
701.46	36879.82
701.65	36312.53
701.84	37154.25
702.03	37098.95
702.22	36715.98
702.41	37131.72
702.60	36658.64
702.79	36554.19
702.98	36531.67
703.17	36562.39
703.35	36578.77
703.54	36591.06
703.73	36988.36
703.92	36742.61
704.11	36953.55
704.30	36707.79
704.49	36689.36
704.68	36294.10
704.87	36445.65
705.06	36216.28
705.25	36122.07
705.43	36353.49
705.62	36253.14
705.81	36431.32
706.00	36554.19
706.19	36158.94
706.38	36355.54
706.57	36361.69
706.76	36015.58
706.95	36001.24
707.14	35907.04
707.32	35898.84
707.51	36140.50
707.70	35974.62
707.89	35698.14
708.08	35958.24
708.27	35794.40
708.46	36187.61
708.65	35536.35
708.84	35870.17
709.02	35925.47
709.21	35739.10
709.40	35747.29
709.59	35507.68
709.78	35163.62
709.97	35673.57
710.16	35468.77
710.34	35292.65
710.53	35444.20
710.72	35132.90
710.91	35116.52
711.10	35298.79
711.29	35499.49
711.48	35329.51
711.66	35270.12
711.85	35190.25
712.04	35366.37
712.23	35429.86
712.42	35272.17
712.61	35202.53
712.80	35298.79
712.98	35261.93
713.17	34702.83
713.36	34584.05
713.55	34975.21
713.74	34848.24
713.93	34864.62
714.11	34854.38
714.30	34584.05
714.49	34819.56
714.68	34983.40
714.87	34582.00
715.06	34706.93
715.24	34848.24
715.43	34565.62
715.62	34256.37
715.81	34330.10
716.00	34489.84
716.18	34543.09
716.37	34481.65
716.56	34174.45
716.75	34362.87
716.94	34555.38
717.12	34477.55
717.31	34346.48
717.50	34022.90
717.69	34127.35
717.88	33848.83
718.06	34006.52
718.25	34033.14
718.44	34123.26
718.63	34043.38
718.82	33891.83
719.00	33611.26
719.19	33857.02
719.38	34002.43
719.57	33617.41
719.76	33441.28
719.94	33670.65
720.13	33652.22
720.32	33533.44
720.51	33267.20
720.69	33334.79
720.88	33201.67
721.07	33025.54
721.26	33146.37
721.44	33027.59
721.63	33107.46
721.82	33039.88
722.01	33314.31
722.20	33166.85
722.38	32802.32
722.57	32894.47
722.76	32845.32
722.95	32783.88
723.13	32753.16
723.32	32423.44
723.51	32665.10
723.70	32540.18
723.88	32689.68
724.07	32456.21
724.26	32546.32
724.44	32194.07
724.63	32534.03
724.82	32927.24
725.01	31956.50
725.19	32345.62
725.38	32011.80
725.57	32134.68
725.76	32296.47
725.94	32437.78
726.13	31966.74
726.32	32153.11
726.51	31864.35
726.69	32458.26
726.88	32413.20
727.07	32200.21
727.25	31981.08
727.44	32271.89
727.63	31917.59
727.82	31645.21
728.00	31962.65
728.19	32134.68
728.38	32370.19
728.56	31315.49
728.75	32083.48
728.94	31831.58
729.12	32087.57
729.31	31858.20
729.50	31813.15
729.69	31866.39
729.87	31854.11
730.06	31565.34
730.25	31665.69
730.43	32212.50
730.62	31630.88
730.81	31641.12
730.99	31606.30
731.18	31157.80
731.37	31321.63
731.55	31688.22
731.74	31792.67
731.93	31766.04
732.11	31518.24
732.30	31532.57
732.49	31202.85
732.67	31370.79
732.86	31317.54
733.05	31661.60
733.23	31151.65
733.42	31280.67
733.61	31092.26
733.79	31309.35
733.98	31311.39
734.17	31374.88
734.35	31348.26
734.54	31249.96
734.73	31209.00
734.91	31016.49
735.10	30692.91
735.29	31278.63
735.47	30584.37
735.66	31307.30
735.84	30893.61
736.03	30512.69
736.22	31090.21
736.40	30793.26
736.59	30879.27
736.78	30830.12
736.96	30826.03
737.15	30692.91
737.33	30492.21
737.52	30725.68
737.71	30608.94
737.89	30793.26
738.08	30494.25
738.27	30316.08
738.45	30725.68
738.64	30731.82
738.82	30733.87
739.01	30617.13
739.20	30299.70
739.38	30400.05
739.57	30451.25
739.75	30393.90
739.94	30178.87
740.13	30475.82
740.31	30115.38
740.50	30537.26
740.68	30225.97
740.87	30121.52
741.06	30561.84
741.24	30389.81
741.43	30023.22
741.61	30225.97
741.80	29855.29
741.99	30195.25
742.17	29961.78
742.36	29957.69
742.54	29949.50
742.73	29677.12
742.91	29924.92
743.10	29756.99
743.29	30099.00
743.47	30101.04
743.66	29980.21
743.84	29498.94
744.03	30008.89
744.21	29722.17
744.40	29793.85
744.59	29974.07
744.77	29625.92
744.96	29642.30
745.14	29693.50
745.33	29959.73
745.51	29566.52
745.70	29582.91
745.88	29283.91
746.07	29820.47
746.26	29355.58
746.44	29371.97
746.63	29120.07
746.81	29347.39
747.00	29281.86
747.18	29230.66
747.37	29480.51
747.55	29441.60
747.74	29548.09
747.92	29314.62
748.11	28993.09
748.29	29316.67
748.48	29312.58
748.66	28976.71
748.85	29316.67
749.03	29361.73
749.22	29003.33
749.41	29019.72
749.59	28866.12
749.78	29038.15
749.96	28685.90
750.15	28767.82
750.33	29040.20
750.52	28843.59
750.70	28847.69
750.89	28567.12
751.07	28741.19
751.26	28808.78
751.44	28862.02
751.63	28687.95
751.81	28589.64
752.00	28489.29
752.18	28874.31
752.37	28612.17
752.55	28497.49
752.74	28573.26
752.92	28481.10
753.10	28372.56
753.29	28534.35
753.47	28294.74
753.66	28077.65
753.84	28366.42
754.03	28266.06
754.21	27842.14
754.40	28218.96
754.58	28425.81
754.77	28315.22
754.95	28300.88
755.14	27922.01
755.32	28028.50
755.51	27727.45
755.69	27555.42
755.88	28159.57
756.06	27917.91
756.24	27858.52
756.43	27850.33
756.61	27817.56
756.80	27971.16
756.98	27508.32
757.17	27784.79
757.35	27731.54
757.54	27993.68
757.72	27653.72
757.90	27743.83
758.09	27264.61
758.27	27510.36
758.46	27465.31
758.64	27528.80
758.83	27508.32
759.01	27506.27
759.19	27600.47
759.38	27407.97
759.56	27426.40
759.75	27444.83
759.93	27285.09
760.12	26998.37
760.30	27096.67
760.48	27059.81
760.67	27098.72
760.85	27262.56
761.04	27399.77
761.22	27133.54
761.40	27276.90
761.59	27221.60
761.77	26883.69
761.96	27237.98
762.14	26879.59
762.32	26914.41
762.51	26633.83
762.69	26627.69
762.88	26805.86
763.06	26932.84
763.24	26844.77
763.43	26615.40
763.61	27055.72
763.80	26898.02
763.98	26480.24
764.16	26734.18
764.35	26672.74
764.53	26230.38
764.72	26324.59
764.90	26283.63
765.08	26603.11
765.27	26584.68
765.45	26195.57
765.63	26164.85
765.82	26207.86
766.00	26099.31
766.18	26119.79
766.37	26556.01
766.55	26142.32
766.74	26304.11
766.92	25788.02
767.10	25958.00
767.29	26062.45
767.47	26084.98
767.65	25919.09
767.84	26052.21
768.02	25882.23
768.20	25982.58
768.39	26115.70
768.57	26058.35
768.75	25720.44
768.94	25661.05
769.12	25783.93
769.30	25466.49
769.49	25659.00
769.67	25757.30
769.85	25269.89
770.04	25640.57
770.22	25437.82
770.40	25306.75
770.59	25505.40
770.77	25583.23
770.95	25278.08
771.14	25609.85
771.32	25032.32
771.50	25243.26
771.69	25308.80
771.87	25136.77
772.05	25243.26
772.24	25290.37
772.42	25235.07
772.60	24895.11
772.78	24706.70
772.97	24972.93
773.15	25116.29
773.33	24839.81
773.52	24862.34
773.70	24778.37
773.88	25087.62
774.07	24761.99
774.25	24936.07
774.43	24872.58
774.61	25194.11
774.80	24923.78
774.98	25030.27
775.16	25097.86
775.34	25071.23
775.53	24682.12
775.71	25153.15
775.89	24989.31
776.08	24921.73
776.26	25056.90
776.44	24858.24
776.62	24618.63
776.81	24721.03
776.99	24802.95
777.17	24915.59
777.35	24979.07
777.54	25075.33
777.72	24845.96
777.90	24962.69
778.08	24766.09
778.27	24899.20
778.45	25273.98
778.63	25364.09
778.81	24649.35
779.00	25259.65
779.18	25015.94
779.36	25245.31
779.54	25104.00
779.73	24901.25
779.91	25149.06
780.09	25030.27
780.27	25353.85
780.46	24766.09
780.64	25104.00
780.82	25009.79
781.00	25087.62
781.19	24970.88
781.37	25095.81
781.55	25233.02
781.73	25497.21
781.91	25302.65
782.10	24880.77
782.28	25126.53
782.46	24999.55
782.64	25386.62
782.82	25069.19
783.01	25269.89
783.19	25063.04
783.37	24966.79
783.55	25380.48
783.74	25398.91
783.92	25063.04
784.10	25824.89
784.28	25165.44
784.46	25167.49
784.64	24917.64
784.83	24977.03
785.01	25060.99
785.19	25058.95
785.37	25230.98
785.55	24946.31
785.74	24571.53
785.92	24737.41
786.10	25149.06
786.28	24862.34
786.46	25067.14
786.64	24753.80
786.83	24919.68
787.01	25038.47
787.19	24899.20
787.37	25071.23
787.55	24915.59
787.74	24841.86
787.92	24819.33
788.10	24483.47
788.28	24653.45
788.46	24565.39
788.64	24321.68
788.82	24821.38
789.01	24897.16
789.19	24706.70
789.37	24542.86
789.55	24596.10
789.73	24592.01
789.91	24123.02
790.09	24475.27
790.28	23963.28
790.46	24229.52
790.64	24331.92
790.82	24340.11
791.00	24063.63
791.18	23965.33
791.36	23885.46
791.55	24243.85
791.73	24039.06
791.91	23811.73
792.09	24037.01
792.27	23705.24
792.45	23754.39
792.63	23840.40
792.81	23836.31
793.00	23695.00
793.18	23549.59
793.36	23738.01
793.54	23600.79
793.72	23445.15
793.90	23305.88
794.08	23621.27
794.26	23338.65
794.44	22935.20
794.62	23230.11
794.81	23240.35
794.99	23170.72
795.17	22724.26
795.35	23023.26
795.53	22859.43
795.71	23109.28
795.89	22812.32
796.07	22924.96
796.25	22447.79
796.43	22513.32
796.61	22781.60
796.80	22357.67
796.98	22599.34
797.16	22726.31
797.34	22752.93
797.52	22408.87
797.70	22507.18
797.88	22472.36
798.06	22232.75
798.24	22216.36
798.42	22187.69
798.60	21937.84
798.78	21929.65
798.96	22128.30
799.14	22167.21
799.32	21909.17
799.51	21888.69
799.69	21868.21
799.87	21788.34
800.05	21604.02
800.23	21667.51
800.41	21593.78
800.59	21784.24
800.77	21419.71
800.95	21391.03
801.13	21503.67
801.31	21251.77
801.49	21343.93
801.67	21266.11
801.85	21046.97
802.03	20954.82
802.21	21380.79
802.39	21098.17
802.57	21245.63
802.75	20922.05
802.93	21006.02
803.11	20946.62
803.29	20903.62
803.47	20565.70
803.65	20813.51
803.83	20618.95
804.01	20858.56
804.19	20590.28
804.37	20522.69
804.55	20352.71
804.73	20352.71
804.91	20586.18
805.09	20383.43
805.27	20305.61
805.45	20459.21
805.63	20301.51
805.81	20152.01
805.99	20125.39
806.17	20164.30
806.35	20350.67
806.53	20043.47
806.71	19898.06
806.89	19781.33
807.07	20223.69
807.25	20143.82
807.43	19943.12
807.61	19879.63
807.79	19574.49
807.97	19640.02
808.15	19791.57
808.33	19463.90
808.51	19490.52
808.69	19513.05
808.87	19472.09
809.05	19326.68
809.23	19300.06
809.41	19007.20
809.59	19150.56
809.77	19115.74
809.95	18876.13
810.13	19265.24
810.31	19197.66
810.49	19058.40
810.67	19154.65
810.84	18929.38
811.02	19130.08
811.20	18808.54
811.38	18910.94
811.56	19091.16
811.74	18812.64
811.92	18869.98
812.10	18990.81
812.28	18794.21
812.46	18777.83
812.64	18702.05
812.82	18648.80
813.00	18689.76
813.18	18853.60
813.36	18491.11
813.53	18304.74
813.71	18292.46
813.89	18577.12
814.07	18343.66
814.25	18591.46
814.43	18411.24
814.61	18276.07
814.79	18300.65
814.97	18431.72
815.15	18513.64
815.33	18097.90
815.50	18005.74
815.68	18126.57
815.86	18282.22
816.04	17911.53
816.22	17975.02
816.40	17985.26
816.58	17848.05
816.76	17587.96
816.94	17927.92
817.11	18003.69
817.29	17856.24
817.47	17788.66
817.65	17721.07
817.83	17336.06
818.01	17633.01
818.19	17622.77
818.37	17499.89
818.54	17610.48
818.72	17356.54
818.90	17250.04
819.08	17510.13
819.26	17581.81
819.44	17315.58
819.62	17301.24
819.80	17321.72
819.97	17295.10
820.15	16992.00
820.33	16916.22
820.51	17198.84
820.69	16799.49
820.87	17188.60
821.05	17229.56
821.22	16766.72
821.40	17065.72
821.58	16801.54
821.76	17133.31
821.94	17067.77
822.12	16981.76
822.29	17153.79
822.47	16920.32
822.65	16844.54
822.83	17026.81
823.01	16912.13
823.19	16668.42
823.36	16676.61
823.54	16537.35
823.72	16713.47
823.90	16410.37
824.08	16578.31
824.25	16619.27
824.43	16707.33
824.61	16555.78
824.79	16504.58
824.97	16576.26
825.15	16391.94
825.32	16494.34
825.50	16414.47
825.68	16008.97
825.86	16400.13
826.04	16437.00
826.21	16176.91
826.39	16361.22
826.57	16240.39
826.75	16133.90
826.93	15990.54
827.10	16090.89
827.28	16015.12
827.46	15947.53
827.64	16008.97
827.81	15980.30
827.99	16051.98
828.17	15806.22
828.35	15941.39
828.53	15974.16
828.70	15902.48
828.88	15675.15
829.06	15546.13
829.24	15925.00
829.41	15685.39
829.59	15693.58
829.77	15591.19
829.95	15652.63
830.12	15705.87
830.30	15818.51
830.48	15482.64
830.66	15798.03
830.84	15671.06
831.01	15607.57
831.19	15490.84
831.37	15417.11
831.55	15406.87
831.72	15316.76
831.90	15390.49
832.08	15460.12
832.25	15357.72
832.43	15370.01
832.61	15320.85
832.79	15214.36
832.96	15210.26
833.14	15275.80
833.32	15322.90
833.50	15302.42
833.67	15191.83
833.85	15288.09
834.03	15124.25
834.20	15130.39
834.38	15099.67
834.56	15079.19
834.74	14984.99
834.91	14993.18
835.09	14878.49
835.27	14796.57
835.44	14774.05
835.62	14612.26
835.80	14749.47
835.98	14845.73
836.15	14659.36
836.33	14741.28
836.51	14882.59
836.68	14796.57
836.86	14892.83
837.04	14661.41
837.21	14391.08
837.39	14714.66
837.57	14692.13
837.75	14640.93
837.92	14425.89
838.10	14567.20
838.28	14354.21
838.45	14526.24
838.63	14456.61
838.81	14425.89
838.98	14352.16
839.16	14479.14
839.34	14319.40
839.51	14163.75
839.69	14290.73
839.87	14188.33
840.04	14210.86
840.22	14341.93
840.40	14223.14
840.57	13893.42
840.75	14311.21
840.93	14171.94
841.10	14008.11
841.28	14180.14
841.46	14042.92
841.63	14274.34
841.81	14104.36
841.98	13889.32
842.16	14225.19
842.34	14016.30
842.51	13897.52
842.69	13911.85
842.87	14020.39
843.04	13995.82
843.22	13786.93
843.40	13920.04
843.57	13831.98
843.75	14225.19
843.92	13741.87
844.10	14063.40
844.28	13831.98
844.45	13877.04
844.63	13735.73
844.81	13610.80
844.98	13446.96
845.16	13856.56
845.33	13532.98
845.51	13907.76
845.69	13467.44
845.86	13424.44
846.04	13668.14
846.21	13639.47
846.39	13487.92
846.57	13510.45
846.74	13410.10
846.92	13393.72
847.09	13293.37
847.27	13555.51
847.45	13387.57
847.62	13328.18
847.80	13442.87
847.97	13297.46
848.15	13481.78
848.32	13424.44
848.50	13197.11
848.68	13166.39
848.85	13436.72
849.03	13387.57
849.20	13481.78
849.38	13629.23
849.56	13424.44
849.73	13113.14
849.91	13182.77
850.08	13141.82
850.26	12855.10
850.43	13084.47
850.61	12963.64
850.78	13016.89
850.96	13012.79
851.14	12666.69
851.31	13162.30
851.49	12867.39
851.66	13176.63
851.84	12990.27
852.01	12724.03
852.19	12955.45
852.36	13020.99
852.54	12869.44
852.71	12683.07
852.89	12832.57
853.07	12640.06
853.24	12871.48
853.42	12797.76
853.59	12789.56
853.77	12652.35
853.94	12971.83
854.12	12781.37
854.29	12640.06
854.47	12808.00
854.64	12576.58
854.82	12580.67
854.99	12734.27
855.17	12646.21
855.34	12584.77
855.52	12543.81
855.69	12500.80
855.87	12463.94
856.04	12441.41
856.22	12498.75
856.39	12453.70
856.57	12357.44
856.74	12367.68
856.92	12496.71
857.09	12552.00
857.27	12427.07
857.44	12394.31
857.62	12422.98
857.79	12539.71
857.97	12263.24
858.14	12179.27
858.32	12300.10
858.49	12447.55
858.67	12212.04
858.84	12058.44
859.02	12308.29
859.19	12040.01
859.37	12189.51
859.54	11927.37
859.72	12207.94
859.89	12207.94
860.06	12080.97
860.24	11892.55
860.41	12224.33
860.59	12083.02
860.76	11943.75
860.94	11794.25
861.11	12109.64
861.29	11929.42
861.46	11888.46
861.64	11648.85
861.81	11859.79
861.98	11835.21
862.16	11781.96
862.33	11532.11
862.51	11808.59
862.68	11824.97
862.86	11837.26
863.03	11765.58
863.21	11777.87
863.38	11585.36
863.55	11669.33
863.73	11773.77
863.90	11575.12
864.08	11638.61
864.25	11454.29
864.43	11671.37
864.60	11435.86
864.77	11620.17
864.95	11507.54
865.12	11485.01
865.30	11460.43
865.47	11583.31
865.64	11374.42
865.82	11448.15
865.99	11343.70
866.17	11312.98
866.34	11521.87
866.51	11237.20
866.69	11296.60
866.86	11405.14
867.04	11454.29
867.21	11310.93
867.38	11106.13
867.56	11214.68
867.73	11061.08
867.91	11304.79
868.08	11249.49
868.25	11118.42
868.43	11175.77
868.60	10915.67
868.78	11200.34
868.95	11282.26
869.12	11177.81
869.30	10944.34
869.47	11108.18
869.64	10905.43
869.82	10846.04
869.99	10903.39
870.16	11052.89
870.34	11013.98
870.51	10995.54
870.69	10698.59
870.86	10829.66
871.03	10843.99
871.21	10596.19
871.38	10798.94
871.55	10633.05
871.73	10671.97
871.90	10800.99
872.07	10655.58
872.25	10700.64
872.42	10598.24
872.59	10641.25
872.77	10596.19
872.94	10536.80
873.11	10622.81
873.29	10598.24
873.46	10438.50
873.63	10411.87
873.81	10387.30
873.98	10424.16
874.15	10282.85
874.33	10420.06
874.50	10202.98
874.67	10243.94
874.85	10323.81
875.02	10166.12
875.19	10250.08
875.37	10215.27
875.54	10235.75
875.71	10000.23
875.88	9867.11
876.06	10145.64
876.23	9996.14
876.40	10166.12
876.58	9860.97
876.75	10098.53
876.92	10137.45
877.10	10125.16
877.27	10067.81
877.44	9903.98
877.61	9881.45
877.79	9920.36
877.96	9992.04
878.13	10014.57
878.31	9916.26
878.48	9867.11
878.65	9748.33
878.82	9717.61
879.00	9744.24
879.17	9641.84
879.34	9811.82
879.51	9723.76
879.69	9742.19
879.86	9748.33
880.03	9713.52
880.21	9545.58
880.38	9514.86
880.55	9709.42
880.72	9518.96
880.90	9604.97
881.07	9740.14
881.24	9676.65
881.41	9635.69
881.59	9572.21
881.76	9465.71
881.93	9564.01
882.10	9344.88
882.28	9398.13
882.45	9316.21
882.62	9553.77
882.79	9508.72
882.96	9236.34
883.14	9363.31
883.31	9441.14
883.48	9346.93
883.65	9428.85
883.83	9324.40
884.00	9295.73
884.17	9334.64
884.34	9295.73
884.51	9166.71
884.69	9285.49
884.86	9236.34
885.03	9105.27
885.20	9117.56
885.38	9219.96
885.55	9389.94
885.72	9166.71
885.89	9164.66
886.06	9123.70
886.24	9199.48
886.41	8992.63
886.58	9215.86
886.75	9260.91
886.92	8978.30
887.10	9127.80
887.27	9097.08
887.44	9162.61
887.61	9185.14
887.78	9271.15
887.95	9103.22
888.13	9111.41
888.30	8916.86
888.47	8968.06
888.64	9086.84
888.81	8851.32
888.99	9045.88
889.16	8822.65
889.33	8722.30
889.50	8851.32
889.67	8841.08
889.84	8886.14
890.01	8976.25
890.19	8660.86
890.36	8761.21
890.53	8701.82
890.70	8546.17
890.87	8761.21
891.04	8730.49
891.22	8689.53
891.39	8818.55
891.56	8638.33
891.73	8718.20
891.90	8765.31
892.07	8656.76
892.24	8650.62
892.42	8609.66
892.59	8609.66
892.76	8441.73
892.93	8494.97
893.10	8693.63
893.27	8482.69
893.44	8566.65
893.61	8427.39
893.79	8492.93
893.96	8640.38
894.13	8607.61
894.30	8503.17
894.47	8519.55
894.64	8599.42
894.81	8501.12
894.98	8566.65
895.15	8718.20
895.33	8517.50
895.50	8460.16
895.67	8505.21
895.84	8482.69
896.01	8494.97
896.18	8324.99
896.35	8466.30
896.52	8316.80
896.69	8267.65
896.86	8429.44
897.04	8574.85
897.21	8419.20
897.38	8294.27
897.55	8548.22
897.72	8402.82
897.89	8396.67
898.06	8353.66
898.23	8507.26
898.40	8296.32
898.57	8294.27
898.74	8456.06
898.91	8302.47
899.08	8308.61
899.26	8261.51
899.43	8435.58
899.60	8398.72
899.77	8294.27
899.94	8423.30
900.11	8171.40
900.28	8472.45
900.45	8449.92
900.62	8265.60
900.79	8302.47
900.96	8335.23
901.13	8198.02
901.30	8269.70
901.47	8146.82
901.64	8290.18
901.81	8288.13
901.98	8083.33
902.15	8306.56
902.32	8159.11
902.49	8382.34
902.66	8134.53
902.83	8187.78
903.01	8257.41
903.18	8163.20
903.35	8202.11
903.52	8036.23
903.69	8122.24
903.86	7976.84
904.03	8228.74
904.20	8126.34
904.37	8312.71
904.54	7991.17
904.71	8023.94
904.88	8038.28
905.05	8028.04
905.22	8193.92
905.39	8265.60
905.56	8232.83
905.73	8185.73
905.90	8273.79
906.07	8228.74
906.24	8099.72
906.41	8224.64
906.58	8107.91
906.75	8066.95
906.92	8114.05
907.09	8189.83
907.26	8046.47
907.43	7944.07
907.60	8003.46
907.77	8175.49
907.93	7962.50
908.10	7952.26
908.27	8103.81
908.44	7944.07
908.61	7872.39
908.78	7800.71
908.95	8122.24
909.12	8032.13
909.29	8036.23
909.46	7939.97
909.63	7853.96
909.80	7980.93
909.97	8085.38
910.14	7886.73
910.31	8064.90
910.48	7993.22
910.65	7933.83
910.82	7985.03
910.99	7862.15
911.16	7944.07
911.33	7913.35
911.50	7831.43
911.66	7772.04
911.83	7956.36
912.00	7741.32
912.17	7808.90
912.34	7565.20
912.51	7876.49
912.68	7741.32
912.85	7638.92
913.02	7899.02
913.19	7636.88
913.36	7655.31
913.53	7886.73
913.70	7772.04
913.86	7792.52
914.03	7634.83
914.20	7550.86
914.37	7612.30
914.54	7692.17
914.71	7690.12
914.88	7638.92
915.05	7528.33
915.22	7487.37
915.39	7628.68
915.55	7690.12
915.72	7409.55
915.89	7530.38
916.06	7526.29
916.23	7530.38
916.40	7518.09
916.57	7434.13
916.74	7423.89
916.91	7333.78
917.07	7303.06
917.24	7198.61
917.41	7341.97
917.58	7522.19
917.75	7108.50
917.92	7241.62
918.09	7266.19
918.26	7309.20
918.42	7141.27
918.59	7200.66
918.76	7098.26
918.93	7163.79
919.10	7227.28
919.27	7290.77
919.44	7057.30
919.60	7018.39
919.77	7053.20
919.94	6879.13
920.11	7092.12
920.28	7120.79
920.45	6801.30
920.61	6860.70
920.78	6940.57
920.95	6936.47
921.12	6852.50
921.29	6768.54
921.46	6690.71
921.62	6619.04
921.79	6854.55
921.96	6645.66
922.13	6731.67
922.30	6651.80
922.47	6801.30
922.63	6553.50
922.80	6567.84
922.97	6526.88
923.14	6453.15
923.31	6592.41
923.47	6455.20
923.64	6696.86
923.81	6590.36
923.98	6565.79
924.15	6408.09
924.32	6522.78
924.48	6610.84
924.65	6496.16
924.82	6371.23
924.99	6176.67
925.15	6299.55
925.32	6336.42
925.49	6125.47
925.66	6182.82
925.83	6274.98
925.99	6184.87
926.16	6281.12
926.33	6182.82
926.50	6125.47
926.67	5998.50
926.83	6180.77
927.00	6092.71
927.17	6004.64
927.34	5988.26
927.50	6070.18
927.67	6018.98
927.84	5896.10
928.01	5939.11
928.17	5849.00
928.34	5892.01
928.51	5846.95
928.68	5892.01
928.84	5795.75
929.01	5793.70
929.18	5646.25
929.35	5644.20
929.51	5699.50
929.68	5621.67
929.85	5644.20
930.02	5529.52
930.18	5543.85
930.35	5545.90
930.52	5570.48
930.69	5717.93
930.85	5556.14
931.02	5531.56
931.19	5478.32
931.36	5355.44
931.52	5527.47
931.69	5361.58
931.86	5320.62
932.02	5199.79
932.19	5300.14
932.36	5355.44
932.53	5300.14
932.69	5265.33
932.86	5375.92
933.03	5326.77
933.19	5154.74
933.36	5158.83
933.53	5203.89
933.70	5052.34
933.86	5062.58
934.03	5156.79
934.20	4892.60
934.36	5107.63
934.53	4945.84
934.70	5011.38
934.86	5136.31
935.03	4894.65
935.20	4847.54
935.36	4917.17
935.53	4751.29
935.70	4825.01
935.86	4829.11
936.03	4511.68
936.20	4575.16
936.36	4501.44
936.53	4540.35
936.70	4417.47
936.86	4607.93
937.03	4501.44
937.20	4380.61
937.36	4554.68
937.53	4310.97
937.70	4315.07
937.86	4286.40
938.03	4270.01
938.20	4399.04
938.36	4138.94
938.53	4122.56
938.70	4018.11
938.86	4075.46
939.03	3983.30
939.20	3917.76
939.36	3958.72
939.53	3946.44
939.70	4071.36
939.86	3950.53
940.03	3702.73
940.19	3745.73
940.36	3815.37
940.53	3755.97
940.69	3626.95
940.86	3710.92
941.03	3667.91
941.19	3475.40
941.36	3663.82
941.52	3532.75
941.69	3399.63
941.86	3499.98
942.02	3475.40
942.19	3485.64
942.35	3422.16
942.52	3387.34
942.69	3321.81
942.85	3291.09
943.02	3330.00
943.18	3344.33
943.35	3295.18
943.52	3377.10
943.68	3239.89
943.85	3217.36
944.01	3309.52
944.18	3237.84
944.35	3211.22
944.51	3141.58
944.68	3082.19
944.84	3192.78
945.01	3160.02
945.17	3078.10
945.34	3284.94
945.51	3125.20
945.67	3076.05
945.84	3069.91
946.00	2934.74
946.17	3047.38
946.33	3117.01
946.50	3059.67
946.67	2959.31
946.83	3071.95
947.00	3061.71
947.16	2987.99
947.33	3065.81
947.49	2973.65
947.66	2934.74
947.82	3039.19
947.99	2904.02
948.16	2971.60
948.32	2973.65
948.49	3004.37
948.65	3071.95
948.82	2977.75
948.98	2910.16
949.15	2928.60
949.31	2916.31
949.48	2901.97
949.64	2844.63
949.81	2967.51
949.97	2750.42
950.14	2940.88
950.30	2865.11
950.47	2951.12
950.63	2858.96
950.80	2926.55
950.96	2854.87
951.13	2936.79
951.30	2879.44
951.46	2928.60
951.63	3010.51
951.79	2932.69
951.96	2942.93
952.12	2977.75
952.29	2916.31
952.45	2914.26
952.62	2832.34
952.78	2932.69
952.94	2889.68
953.11	2871.25
953.27	2922.45
953.44	2881.49
953.60	2942.93
953.77	2901.97
953.93	2928.60
954.10	2899.92
954.26	3000.27
954.43	2846.68
954.59	2934.74
954.76	2901.97
954.92	2881.49
955.09	2994.13
955.25	2832.34
955.42	2822.10
955.58	2930.64
955.75	2809.81
955.91	2791.38
956.07	2877.40
956.24	2887.64
956.40	2791.38
956.57	2791.38
956.73	2779.09
956.90	2910.16
957.06	2785.24
957.23	2777.05
957.39	2805.72
957.56	2944.98
957.72	2834.39
957.88	2803.67
958.05	2766.81
958.21	2787.29
958.38	2764.76
958.54	2752.47
958.71	2881.49
958.87	2717.65
959.03	2818.00
959.20	2795.48
959.36	2758.61
959.53	2709.46
959.69	2791.38
959.85	2797.53
960.02	2840.53
960.18	2740.18
960.35	2770.90
960.51	2705.37
960.68	2781.14
960.84	2838.48
961.00	2731.99
961.17	2731.99
961.33	2744.28
961.50	2811.86
961.66	2703.32
961.82	2719.70
961.99	2779.09
962.15	2789.33
962.31	2721.75
962.48	2703.32
962.64	2813.91
962.81	2719.70
962.97	2674.65
963.13	2717.65
963.30	2783.19
963.46	2719.70
963.62	2719.70
963.79	2736.09
963.95	2772.95
964.12	2709.46
964.28	2736.09
964.44	2748.37
964.61	2772.95
964.77	2736.09
964.93	2742.23
965.10	2643.93
965.26	2641.88
965.42	2695.13
965.59	2580.44
965.75	2650.07
965.92	2693.08
966.08	2717.65
966.24	2621.40
966.41	2662.36
966.57	2623.45
966.73	2709.46
966.90	2650.07
967.06	2660.31
967.22	2619.35
967.39	2652.12
967.55	2645.98
967.71	2633.69
967.88	2693.08
968.04	2682.84
968.20	2625.50
968.37	2529.24
968.53	2623.45
968.69	2607.06
968.85	2584.54
969.02	2562.01
969.18	2617.30
969.34	2656.22
969.51	2629.59
969.67	2619.35
969.83	2543.58
970.00	2693.08
970.16	2650.07
970.32	2586.58
970.48	2539.48
970.65	2664.41
970.81	2592.73
970.97	2576.34
971.14	2627.54
971.30	2637.78
971.46	2533.34
971.63	2541.53
971.79	2617.30
971.95	2529.24
972.11	2553.82
972.28	2480.09
972.44	2539.48
972.60	2508.76
972.76	2521.05
972.93	2500.57
973.09	2588.63
973.25	2564.06
973.42	2504.67
973.58	2539.48
973.74	2490.33
973.90	2607.06
974.07	2625.50
974.23	2527.19
974.39	2465.75
974.55	2471.90
974.72	2422.75
974.88	2478.04
975.04	2508.76
975.20	2426.84
975.37	2566.10
975.53	2432.99
975.69	2453.47
975.85	2402.27
976.01	2555.86
976.18	2498.52
976.34	2412.51
976.50	2502.62
976.66	2426.84
976.83	2519.00
976.99	2553.82
977.15	2529.24
977.31	2371.55
977.47	2533.34
977.64	2432.99
977.80	2445.27
977.96	2516.95
978.12	2406.36
978.29	2359.26
978.45	2371.55
978.61	2467.80
978.77	2465.75
978.93	2457.56
979.10	2389.98
979.26	2422.75
979.42	2373.60
979.58	2285.53
979.74	2428.89
979.91	2392.03
980.07	2318.30
980.23	2373.60
980.39	2351.07
980.55	2367.45
980.71	2349.02
980.88	2349.02
981.04	2373.60
981.20	2271.20
981.36	2340.83
981.52	2394.08
981.68	2291.68
981.85	2398.17
982.01	2297.82
982.17	2328.54
982.33	2361.31
982.49	2371.55
982.65	2273.25
982.82	2277.34
982.98	2322.40
983.14	2338.78
983.30	2322.40
983.46	2318.30
983.62	2355.16
983.79	2330.59
983.95	2238.43
984.11	2367.45
984.27	2314.20
984.43	2342.88
984.59	2318.30
984.75	2349.02
984.91	2312.16
985.08	2279.39
985.24	2254.81
985.40	2267.10
985.56	2308.06
985.72	2299.87
985.88	2320.35
986.04	2170.85
986.20	2271.20
986.37	2265.05
986.53	2240.48
986.69	2269.15
986.85	2281.44
987.01	2338.78
987.17	2236.38
987.33	2316.25
987.49	2273.25
987.65	2308.06
987.82	2240.48
987.98	2150.37
988.14	2246.62
988.30	2289.63
988.46	2176.99
988.62	2181.09
988.78	2267.10
988.94	2230.24
989.10	2197.47
989.26	2211.81
989.42	2150.37
989.59	2205.66
989.75	2140.13
989.91	2297.82
990.07	2162.66
990.23	2224.09
990.39	2146.27
990.55	2187.23
990.71	2140.13
990.87	2207.71
991.03	2244.57
991.19	2220.00
991.35	2199.52
991.51	2127.84
991.67	2211.81
991.83	2195.42
992.00	2117.60
992.16	2131.94
992.32	2166.75
992.48	2275.29
992.64	2131.94
992.80	2224.09
992.96	2115.55
993.12	2138.08
993.28	2150.37
993.44	2166.75
993.60	2105.31
993.76	2140.13
993.92	2217.95
994.08	2164.70
994.24	2154.46
994.40	2168.80
994.56	2146.27
994.72	2142.18
994.88	2119.65
995.04	2125.79
995.20	2066.40
995.36	2068.45
995.52	2115.55
995.68	2131.94
995.84	2062.30
996.00	2148.32
996.16	2111.46
996.32	2125.79
996.48	2093.02
996.64	2189.28
996.80	2043.87
996.96	2127.84
997.12	2023.39
997.28	2058.21
997.44	2064.35
997.60	2144.22
997.76	2115.55
997.92	2082.78
998.08	2076.64
998.24	2090.98
998.40	2119.65
998.56	2025.44
998.72	2000.87
998.88	2105.31
999.04	2119.65
999.20	2101.22
999.36	2076.64
999.52	2062.30
999.68	2072.54
999.84	2027.49
1000.00	2056.16
1000.16	2023.39
1000.32	2058.21
1000.48	2162.66
1000.64	2023.39
1000.80	2023.39
1000.95	2013.15
1001.11	2043.87
1001.27	2027.49
1001.43	2037.73
1001.59	2035.68
1001.75	1966.05
1001.91	2052.06
1002.07	2054.11
1002.23	1941.47
1002.39	2007.01
1002.55	1986.53
1002.71	1920.99
1002.87	2017.25
1003.03	2035.68
1003.19	1947.62
1003.34	2025.44
1003.50	2027.49
1003.66	2078.69
1003.82	2037.73
1003.98	1943.52
1004.14	2002.91
1004.30	1925.09
1004.46	1996.77
1004.62	1937.38
1004.78	1980.39
1004.94	2027.49
1005.09	1982.43
1005.25	1986.53
1005.41	1857.51
1005.57	1929.19
1005.73	2000.87
1005.89	1939.43
1006.05	1986.53
1006.21	1947.62
1006.37	1941.47
1006.52	1978.34
1006.68	1939.43
1006.84	1980.39
1007.00	1845.22
1007.16	2017.25
1007.32	1964.00
1007.48	1923.04
1007.64	1943.52
1007.79	1935.33
1007.95	1980.39
1008.11	1949.67
1008.27	1908.71
1008.43	1949.67
1008.59	1810.40
1008.75	1951.71
1008.91	1920.99
1009.06	1953.76
1009.22	1906.66
1009.38	1861.60
1009.54	1974.24
1009.70	1867.75
1009.86	1898.47
1010.01	1914.85
1010.17	1875.94
1010.33	1984.48
1010.49	1888.23
1010.65	1929.19
1010.81	1929.19
1010.96	1902.56
1011.12	1912.80
1011.28	1935.33
1011.44	1951.71
1011.60	1923.04
1011.76	1834.98
1011.91	1964.00
1012.07	1847.27
1012.23	1863.65
1012.39	1828.84
1012.55	1914.85
1012.71	1832.93
1012.86	1918.95
1013.02	1877.99
1013.18	1863.65
1013.34	1845.22
1013.50	1941.47
1013.65	1955.81
1013.81	1851.36
1013.97	1806.31
1014.13	1855.46
1014.29	1843.17
1014.44	1902.56
1014.60	1898.47
1014.76	1890.28
1014.92	1816.55
1015.07	1931.23
1015.23	1853.41
1015.39	1830.88
1015.55	1791.97
1015.71	1744.87
1015.86	1882.08
1016.02	1796.07
1016.18	1806.31
1016.34	1775.59
1016.49	1845.22
1016.65	1906.66
1016.81	1794.02
1016.97	1839.08
1017.12	1826.79
1017.28	1740.77
1017.44	1818.60
1017.60	1812.45
1017.75	1753.06
1017.91	1783.78
1018.07	1810.40
1018.23	1761.25
1018.38	1822.69
1018.54	1855.46
1018.70	1767.40
1018.86	1759.21
1019.01	1691.62
1019.17	1931.23
1019.33	1873.89
1019.49	1818.60
1019.64	1818.60
1019.80	1832.93
1019.96	1867.75
1020.12	1804.26
1020.27	1783.78
1020.43	1814.50
1020.59	1830.88
1020.74	1791.97
1020.90	1763.30
1021.06	1751.01
1021.22	1769.44
1021.37	1859.56
1021.53	1740.77
1021.69	1763.30
1021.84	1742.82
1022.00	1806.31
1022.16	1673.19
1022.31	1824.74
1022.47	1791.97
1022.63	1816.55
1022.79	1697.77
1022.94	1716.20
1023.10	1816.55
1023.26	1763.30
1023.41	1693.67
1023.57	1753.06
1023.73	1722.34
1023.88	1771.49
1024.04	1701.86
1024.20	1730.53
1024.35	1763.30
1024.51	1748.97
1024.67	1816.55
1024.82	1822.69
1024.98	1716.20
1025.14	1755.11
1025.29	1712.10
1025.45	1744.87
1025.61	1681.38
1025.76	1632.23
1025.92	1777.64
1026.08	1751.01
1026.23	1724.39
1026.39	1781.73
1026.55	1789.92
1026.70	1705.96
1026.86	1693.67
1027.02	1814.50
1027.17	1734.63
1027.33	1708.01
1027.48	1761.25
1027.64	1714.15
1027.80	1621.99
1027.95	1679.33
1028.11	1662.95
1028.27	1740.77
1028.42	1742.82
1028.58	1773.54
1028.73	1691.62
1028.89	1699.81
1029.05	1632.23
1029.20	1765.35
>>>>>End Processed Spectral Data<<<<<
