SpectraSuite Data File
++++++++++++++++++++++++++++++++++++
Date: Tue Jun 13 11:56:49 CEST 2017
User: INFO_000
Dark Spectrum Present: No
Reference Spectrum Present: No
Number of Sampled Component Spectra: 1
Spectrometers: USB4H00879
Integration Time (usec): 30000 (USB4H00879)
Spectra Averaged: 1 (USB4H00879)
Boxcar Smoothing: 0 (USB4H00879)
Correct for Electrical Dark: No (USB4H00879)
Strobe/Lamp Enabled: No (USB4H00879)
Correct for Detector Non-linearity: No (USB4H00879)
Correct for Stray Light: No (USB4H00879)
Number of Pixels in Processed Spectrum: 3648
>>>>>Begin Processed Spectral Data<<<<<
345.13	1325.04
345.34	1325.04
345.56	1325.04
345.78	1370.09
345.99	1357.80
346.21	1468.39
346.42	1513.45
346.64	1535.98
346.86	1601.51
347.07	1544.17
347.29	1527.78
347.50	1492.97
347.72	1562.60
347.94	1517.54
348.15	1441.77
348.37	1435.63
348.59	1525.74
348.80	1558.50
349.02	1615.85
349.23	1667.05
349.45	1583.08
349.67	1589.22
349.88	1566.70
350.10	1689.57
350.31	1607.66
350.53	1538.02
350.75	1656.81
350.96	1570.79
351.18	1574.89
351.39	1597.42
351.61	1591.27
351.82	1619.94
352.04	1624.04
352.26	1572.84
352.47	1712.10
352.69	1634.28
352.90	1611.75
353.12	1667.05
353.34	1589.22
353.55	1581.03
353.77	1638.38
353.98	1650.66
354.20	1599.46
354.41	1605.61
354.63	1640.42
354.85	1691.62
355.06	1740.77
355.28	1548.26
355.49	1630.18
355.71	1597.42
355.92	1572.84
356.14	1597.42
356.35	1568.74
356.57	1593.32
356.79	1658.85
357.00	1665.00
357.22	1660.90
357.43	1581.03
357.65	1617.90
357.86	1624.04
358.08	1646.57
358.29	1656.81
358.51	1632.23
358.72	1626.09
358.94	1708.01
359.16	1638.38
359.37	1628.14
359.59	1650.66
359.80	1720.29
360.02	1693.67
360.23	1644.52
360.45	1746.92
360.66	1613.80
360.88	1630.18
361.09	1613.80
361.31	1650.66
361.52	1763.30
361.74	1728.49
361.95	1757.16
362.17	1665.00
362.38	1732.58
362.60	1755.11
362.81	1654.76
363.03	1675.24
363.24	1695.72
363.46	1732.58
363.67	1634.28
363.89	1765.35
364.10	1720.29
364.32	1708.01
364.53	1673.19
364.75	1755.11
364.96	1716.20
365.18	1710.05
365.39	1759.21
365.61	1621.99
365.82	1773.54
366.04	1642.47
366.25	1751.01
366.47	1806.31
366.68	1740.77
366.90	1701.86
367.11	1804.26
367.33	1810.40
367.54	1722.34
367.76	1765.35
367.97	1718.25
368.19	1769.44
368.40	1712.10
368.62	1671.14
368.83	1732.58
369.05	1744.87
369.26	1755.11
369.48	1724.39
369.69	1720.29
369.91	1726.44
370.12	1703.91
370.33	1761.25
370.55	1677.29
370.76	1708.01
370.98	1757.16
371.19	1822.69
371.41	1775.59
371.62	1794.02
371.84	1783.78
372.05	1802.21
372.27	1761.25
372.48	1769.44
372.69	1759.21
372.91	1783.78
373.12	1785.83
373.34	1781.73
373.55	1920.99
373.77	1791.97
373.98	1824.74
374.20	1849.32
374.41	1867.75
374.62	1867.75
374.84	1783.78
375.05	1904.61
375.27	1832.93
375.48	1912.80
375.70	1785.83
375.91	1863.65
376.12	1935.33
376.34	1839.08
376.55	1890.28
376.77	1877.99
376.98	1789.92
377.19	1837.03
377.41	1857.51
377.62	1906.66
377.84	1871.84
378.05	1931.23
378.27	1814.50
378.48	1863.65
378.69	1947.62
378.91	1908.71
379.12	1900.52
379.34	1886.18
379.55	1957.86
379.76	1961.95
379.98	1974.24
380.19	1898.47
380.41	1966.05
380.62	1933.28
380.83	1949.67
381.05	1849.32
381.26	1941.47
381.47	1986.53
381.69	1910.75
381.90	2002.91
382.12	1945.57
382.33	1941.47
382.54	1937.38
382.76	2037.73
382.97	1966.05
383.19	1941.47
383.40	2000.87
383.61	1949.67
383.83	2007.01
384.04	1882.08
384.25	1880.04
384.47	1998.82
384.68	2062.30
384.89	1996.77
385.11	2025.44
385.32	2101.22
385.54	2029.54
385.75	1933.28
385.96	1980.39
386.18	2103.26
386.39	2041.82
386.60	2009.06
386.82	2119.65
387.03	2060.26
387.24	2101.22
387.46	2058.21
387.67	2133.98
387.88	2123.74
388.10	2105.31
388.31	2131.94
388.52	2072.54
388.74	2068.45
388.95	2045.92
389.16	2107.36
389.38	2050.02
389.59	2160.61
389.80	2172.89
390.02	2158.56
390.23	2191.33
390.44	2256.86
390.66	2146.27
390.87	2099.17
391.08	2215.90
391.30	2322.40
391.51	2256.86
391.72	2238.43
391.94	2246.62
392.15	2207.71
392.36	2215.90
392.58	2215.90
392.79	2265.05
393.00	2306.01
393.22	2256.86
393.43	2330.59
393.64	2228.19
393.85	2285.53
394.07	2195.42
394.28	2303.96
394.49	2332.64
394.71	2295.77
394.92	2342.88
395.13	2228.19
395.35	2318.30
395.56	2373.60
395.77	2416.60
395.98	2385.88
396.20	2422.75
396.41	2424.80
396.62	2426.84
396.84	2441.18
397.05	2363.36
397.26	2506.71
397.47	2373.60
397.69	2375.64
397.90	2535.39
398.11	2475.99
398.32	2455.51
398.54	2406.36
398.75	2496.47
398.96	2447.32
399.18	2580.44
399.39	2619.35
399.60	2437.08
399.81	2475.99
400.03	2494.43
400.24	2605.02
400.45	2465.75
400.66	2594.78
400.88	2660.31
401.09	2643.93
401.30	2639.83
401.51	2717.65
401.73	2656.22
401.94	2656.22
402.15	2641.88
402.36	2676.70
402.58	2711.51
402.79	2727.89
403.00	2693.08
403.21	2705.37
403.43	2637.78
403.64	2744.28
403.85	2609.11
404.06	2719.70
404.27	2621.40
404.49	2664.41
404.70	2672.60
404.91	2748.37
405.12	2684.89
405.34	2760.66
405.55	2963.41
405.76	2768.85
405.97	2721.75
406.19	2758.61
406.40	2820.05
406.61	2777.05
406.82	2822.10
407.03	2856.92
407.25	2758.61
407.46	2858.96
407.67	2861.01
407.88	2824.15
408.09	2838.48
408.31	2848.72
408.52	2873.30
408.73	2944.98
408.94	2828.24
409.15	2850.77
409.37	3018.71
409.58	2924.50
409.79	3026.90
410.00	2987.99
410.21	2854.87
410.43	2938.84
410.64	3004.37
410.85	3000.27
411.06	2940.88
411.27	3080.14
411.48	3063.76
411.70	3067.86
411.91	3067.86
412.12	3139.54
412.33	3026.90
412.54	3059.67
412.76	3178.45
412.97	3084.24
413.18	3088.34
413.39	3114.96
413.60	3102.67
413.81	3104.72
414.03	3106.77
414.24	3133.39
414.45	3256.27
414.66	3047.38
414.87	3147.73
415.08	3180.50
415.30	3149.78
415.51	3192.78
415.72	3168.21
415.93	3256.27
416.14	3248.08
416.35	3286.99
416.56	3209.17
416.78	3321.81
416.99	3260.37
417.20	3315.66
417.41	3309.52
417.62	3360.72
417.83	3512.27
418.04	3395.53
418.26	3416.01
418.47	3330.00
418.68	3411.92
418.89	3381.20
419.10	3473.36
419.31	3418.06
419.52	3512.27
419.73	3305.42
419.95	3497.93
420.16	3452.88
420.37	3461.07
420.58	3461.07
420.79	3325.90
421.00	3532.75
421.21	3590.09
421.42	3538.89
421.63	3571.66
421.85	3502.03
422.06	3618.76
422.27	3635.14
422.48	3545.03
422.69	3631.05
422.90	3606.47
423.11	3745.73
423.32	3682.25
423.53	3700.68
423.75	3631.05
423.96	3844.04
424.17	3766.21
424.38	3819.46
424.59	3862.47
424.80	3993.54
425.01	3749.83
425.22	3850.18
425.43	3839.94
425.64	3956.68
425.85	3934.15
426.06	3930.05
426.28	4059.07
426.49	4011.97
426.70	3960.77
426.91	4081.60
427.12	4075.46
427.33	3997.64
427.54	4046.79
427.75	4114.37
427.96	4194.24
428.17	4104.13
428.38	4157.38
428.59	4122.56
428.80	4124.61
429.01	4186.05
429.23	4165.57
429.44	4331.45
429.65	4265.92
429.86	4132.80
430.07	4218.82
430.28	4245.44
430.49	4292.54
430.70	4372.41
430.91	4464.57
431.12	4435.90
431.33	4382.65
431.54	4341.69
431.75	4419.52
431.96	4487.10
432.17	4480.96
432.38	4386.75
432.59	4628.41
432.80	4437.95
433.01	4620.22
433.22	4657.08
433.43	4579.26
433.64	4540.35
433.85	4534.20
434.06	4605.88
434.27	4695.99
434.49	4650.94
434.70	4800.44
434.91	4808.63
435.12	4825.01
435.33	4835.25
435.54	4888.50
435.75	4771.77
435.96	4687.80
436.17	4726.71
436.38	4962.23
436.59	4788.15
436.80	4810.68
437.01	5058.48
437.22	4958.13
437.43	4982.71
437.64	4814.77
437.85	5146.55
438.06	4984.76
438.27	4962.23
438.48	5007.28
438.69	5081.01
438.90	5093.30
439.11	4982.71
439.32	5158.83
439.53	5175.22
439.74	5238.70
439.95	5210.03
440.16	5027.76
440.37	5248.94
440.57	5134.26
440.78	5255.09
440.99	5314.48
441.20	5287.86
441.41	5183.41
441.62	5261.23
441.83	5298.10
442.04	5197.74
442.25	5273.52
442.46	5322.67
442.67	5455.79
442.88	5644.20
443.09	5384.11
443.30	5472.17
443.51	5361.58
443.72	5644.20
443.93	5463.98
444.14	5638.06
444.35	5509.04
444.56	5644.20
444.77	5609.39
444.98	5629.87
445.19	5644.20
445.40	5572.52
445.61	5564.33
445.81	5787.56
446.02	5777.32
446.23	5644.20
446.44	5625.77
446.65	5605.29
446.86	5656.49
447.07	5693.35
447.28	5984.16
447.49	5908.39
447.70	5935.01
447.91	5820.33
448.12	5865.38
448.33	5984.16
448.54	6109.09
448.74	6033.32
448.95	6023.08
449.16	5810.09
449.37	6000.55
449.58	6023.08
449.79	6172.58
450.00	5892.01
450.21	6219.68
450.42	6279.07
450.63	6182.82
450.84	6244.26
451.05	6203.30
451.25	6154.15
451.46	6148.00
451.67	6219.68
451.88	6281.12
452.09	6324.13
452.30	6137.76
452.51	6387.61
452.72	6432.67
452.93	6639.51
453.13	6242.21
453.34	6467.49
453.55	6504.35
453.76	6453.15
453.97	6676.38
454.18	6647.71
454.39	6584.22
454.60	6651.80
454.81	6543.26
455.01	6731.67
455.22	6602.65
455.43	6829.98
455.64	6791.06
455.85	6965.14
456.06	6961.05
456.27	6770.58
456.48	6795.16
456.68	6760.34
456.89	7016.34
457.10	6965.14
457.31	7030.68
457.52	6965.14
457.73	7171.99
457.94	7319.44
458.14	7178.13
458.35	7450.51
458.56	7399.31
458.77	7301.01
458.98	7391.12
459.19	7210.90
459.39	7497.61
459.60	7466.89
459.81	7415.69
460.02	7694.22
460.23	7628.68
460.44	7810.95
460.65	7657.36
460.85	7505.81
461.06	7800.71
461.27	7587.72
461.48	7894.92
461.69	7860.10
461.89	7751.56
462.10	7856.01
462.31	7841.67
462.52	7864.20
462.73	7716.75
462.94	7982.98
463.14	8238.98
463.35	8097.67
463.56	8384.38
463.77	8296.32
463.98	8312.71
464.18	8398.72
464.39	8392.58
464.60	8566.65
464.81	8562.56
465.02	8396.67
465.23	8605.56
465.43	8546.17
465.64	8748.92
465.85	8664.96
466.06	8556.41
466.27	9054.07
466.47	8759.16
466.68	8845.18
466.89	8992.63
467.10	8923.00
467.30	8929.14
467.51	8978.30
467.72	9285.49
467.93	9013.11
468.14	9199.48
468.34	9396.08
468.55	9193.33
468.76	9400.18
468.97	9314.16
469.17	9580.40
469.38	9420.66
469.59	9547.63
469.80	9387.89
470.01	9715.56
470.21	9621.36
470.42	9805.67
470.63	9852.78
470.84	9795.43
471.04	9934.70
471.25	9881.45
471.46	10215.27
471.67	10297.19
471.87	10002.28
472.08	10000.23
472.29	10426.21
472.50	10237.80
472.70	10342.24
472.91	10309.47
473.12	10485.60
473.33	10678.11
473.53	10581.85
473.74	10745.69
473.95	10803.04
474.16	11114.33
474.36	10870.62
474.57	10768.22
474.78	11147.09
474.99	11116.37
475.19	10911.58
475.40	11439.95
475.61	11554.64
475.81	11482.96
476.02	11708.24
476.23	11577.17
476.44	11591.50
476.64	11964.23
476.85	11841.36
477.06	11919.18
477.27	12201.80
477.47	12171.08
477.68	11986.76
477.89	12427.07
478.09	12336.96
478.30	12392.26
478.51	12527.42
478.71	12535.62
478.92	12715.84
479.13	12572.48
479.34	12986.17
479.54	12693.31
479.75	12781.37
479.96	12812.09
480.16	12912.44
480.37	13387.57
480.58	13365.04
480.78	13498.16
480.99	13203.25
481.20	13535.03
481.41	13774.64
481.61	13688.62
481.82	13616.94
482.03	13526.83
482.23	13729.58
482.44	14018.35
482.65	14047.02
482.85	14262.05
483.06	14190.38
483.27	13909.80
483.47	14436.13
483.68	14458.66
483.89	14460.71
484.09	14346.02
484.30	14599.97
484.51	14769.95
484.71	14835.49
484.92	14896.92
485.13	15036.19
485.33	15208.22
485.54	15351.57
485.75	15468.31
485.95	15421.20
486.16	15333.14
486.37	15687.44
486.57	15384.34
486.78	15576.85
486.98	15626.00
487.19	15806.22
487.40	15937.29
487.60	16021.26
487.81	16322.31
488.02	16092.94
488.22	15935.24
488.43	16117.51
488.64	16525.06
488.84	16387.85
489.05	16580.36
489.25	16432.90
489.46	16721.66
489.67	16592.64
489.87	17059.58
490.08	16926.46
490.29	16994.04
490.49	17182.46
490.70	17164.03
490.90	17420.02
491.11	17391.35
491.32	17387.25
491.52	17379.06
491.73	17284.86
491.94	17463.03
492.14	17686.26
492.35	17782.51
492.55	17895.15
492.76	18222.83
492.97	18353.90
493.17	18382.57
493.38	18175.72
493.58	18300.65
493.79	18341.61
494.00	18521.83
494.20	18378.47
494.41	18628.32
494.61	18396.90
494.82	18710.24
495.02	18716.39
495.23	18663.14
495.44	18878.18
495.64	18912.99
495.85	18900.70
496.05	19085.02
496.26	19316.44
496.47	19443.42
496.67	19470.04
496.88	19363.54
497.08	19474.13
497.29	19617.49
497.49	19547.86
497.70	19834.58
497.91	19554.01
498.11	19777.23
498.32	19865.30
498.52	20084.43
498.73	20035.28
498.93	20078.29
499.14	20436.68
499.34	19834.58
499.55	20324.04
499.76	20334.28
499.96	20250.32
500.17	20309.71
500.37	20643.52
500.58	20717.25
500.78	20598.47
500.99	20778.69
501.19	21085.89
501.40	20932.29
501.60	20594.37
501.81	20766.40
502.02	20952.77
502.22	21159.61
502.43	21130.94
502.63	21204.67
502.84	21302.97
503.04	21491.38
503.25	21305.02
503.45	21309.11
503.66	21429.94
503.86	21419.71
504.07	21649.08
504.27	21503.67
504.48	22009.52
504.68	21829.30
504.89	22087.34
505.09	21968.56
505.30	22046.38
505.50	21776.05
505.71	21991.09
505.91	21880.50
506.12	22365.87
506.32	22773.41
506.53	22267.56
506.73	22750.88
506.94	22603.43
507.14	22396.59
507.35	22318.76
507.55	22677.16
507.76	22785.70
507.96	22714.02
508.17	22697.64
508.37	22797.99
508.58	22746.79
508.78	22761.12
508.99	23211.68
509.19	22996.64
509.40	22685.35
509.60	23135.90
509.81	23066.27
510.01	23369.37
510.22	23094.94
510.42	23314.08
510.63	23047.84
510.83	23111.33
511.04	23215.77
511.24	23439.00
511.44	23375.52
511.65	23541.40
511.85	23676.57
512.06	23719.57
512.26	24047.25
512.47	23596.70
512.67	23752.34
512.88	23758.49
513.08	23778.97
513.29	23950.99
513.49	23682.71
513.69	23877.27
513.90	23985.81
514.10	23850.64
514.31	24010.39
514.51	24270.48
514.72	24235.66
514.92	23922.32
515.13	24393.36
515.33	24362.64
515.53	24442.51
515.74	24399.50
515.94	24190.61
516.15	24598.15
516.35	24342.16
516.56	24622.73
516.76	24428.17
516.96	24792.71
517.17	24770.18
517.37	24778.37
517.58	24665.74
517.78	24751.75
517.99	24563.34
518.19	24794.76
518.39	25085.57
518.60	24991.36
518.80	25089.67
519.01	25149.06
519.21	25335.42
519.41	25087.62
519.62	25398.91
519.82	25206.40
520.03	25296.51
520.23	25478.78
520.43	25306.75
520.64	25677.43
520.84	25685.62
521.05	25521.79
521.25	25753.21
521.45	26044.02
521.66	25972.34
521.86	25697.91
522.07	26060.40
522.27	26193.52
522.47	25941.62
522.68	26246.77
522.88	26119.79
523.08	26394.22
523.29	26289.77
523.49	26441.32
523.70	26201.71
523.90	26637.93
524.10	26535.53
524.31	26371.69
524.51	26639.98
524.71	26660.46
524.92	26570.35
525.12	26867.30
525.33	26885.73
525.53	26953.32
525.73	27348.57
525.94	27092.58
526.14	27227.74
526.34	27203.17
526.55	27285.09
526.75	27170.40
526.95	27199.07
527.16	27356.77
527.36	27502.17
527.56	27723.35
527.77	27418.21
527.97	27541.08
528.17	27774.55
528.38	28038.74
528.58	28108.37
528.78	27846.23
528.99	28159.57
529.19	28261.97
529.39	27922.01
529.60	28487.25
529.80	28501.58
530.00	28065.36
530.21	28587.60
530.41	28751.43
530.61	28728.91
530.82	28499.53
531.02	28837.45
531.22	28784.20
531.43	28657.23
531.63	29083.20
531.83	29263.43
532.04	29310.53
532.24	29054.53
532.44	29359.68
532.64	29609.53
532.85	29240.90
533.05	29453.89
533.25	29713.98
533.46	29435.45
533.66	29754.94
533.86	29701.69
534.07	29957.69
534.27	29972.02
534.47	30092.85
534.67	30275.12
534.88	29969.97
535.08	30010.93
535.28	30303.79
535.49	30373.42
535.69	30709.29
535.89	30733.87
536.09	30447.15
536.30	30731.82
536.50	30422.58
536.70	30934.57
536.91	30428.72
537.11	30864.94
537.31	31110.69
537.51	30819.88
537.72	31290.91
537.92	31139.36
538.12	31307.30
538.32	31217.19
538.53	31493.66
538.73	31323.68
538.93	31139.36
539.13	31399.46
539.34	31094.31
539.54	31245.86
539.74	31798.81
539.94	31733.28
540.15	31628.83
540.35	31796.76
540.55	32019.99
540.75	31618.59
540.96	32187.92
541.16	31854.11
541.36	32058.90
541.56	32079.38
541.77	32237.08
541.97	32106.01
542.17	32151.06
542.37	32495.12
542.58	32431.63
542.78	32663.05
542.98	32409.11
543.18	32681.49
543.38	32892.43
543.59	32861.71
543.79	32505.36
543.99	32966.15
544.19	32824.84
544.40	32812.56
544.60	33144.33
544.80	32802.32
545.00	33041.93
545.20	33347.08
545.41	32992.78
545.61	33062.41
545.81	33353.22
546.01	33342.98
546.21	33017.35
546.42	33025.54
546.62	33680.89
546.82	33461.76
547.02	33322.50
547.22	33601.02
547.43	33439.23
547.63	33312.26
547.83	33553.92
548.03	33543.68
548.23	33873.40
548.44	33658.37
548.64	33986.04
548.84	33752.57
549.04	33697.28
549.24	34131.45
549.45	34315.76
549.65	33951.23
549.85	33863.16
550.05	34264.57
550.25	34270.71
550.45	34393.59
550.66	34170.36
550.86	34070.01
551.06	34373.11
551.26	34803.18
551.46	34323.96
551.66	34549.23
551.87	34194.93
552.07	34641.39
552.27	34412.02
552.47	34629.10
552.67	34903.53
552.87	34436.59
553.07	34590.19
553.28	34983.40
553.48	34932.20
553.68	34604.53
553.88	35141.10
554.08	34852.33
554.28	34629.10
554.48	34751.98
554.69	34991.59
554.89	35120.62
555.09	34668.02
555.29	35010.03
555.49	35292.65
555.69	34803.18
555.89	35130.86
556.10	35206.63
556.30	35147.24
556.50	35335.65
556.70	34835.95
556.90	35374.56
557.10	35296.74
557.30	35257.83
557.50	35470.82
557.70	35626.46
557.91	35300.84
558.11	35184.10
558.31	35014.12
558.51	35245.54
558.71	35454.44
558.91	35876.32
559.11	35202.53
559.31	35356.13
559.51	35804.64
559.72	35536.35
559.92	35741.15
560.12	35462.63
560.32	35778.01
560.52	35421.67
560.72	35802.59
560.92	35911.13
561.12	35456.48
561.32	36005.34
561.52	35538.40
561.72	36160.98
561.93	35835.36
562.13	35927.52
562.33	35829.21
562.53	36425.17
562.73	35778.01
562.93	35874.27
563.13	36201.94
563.33	36193.75
563.53	36269.53
563.73	35816.93
563.93	36183.51
564.13	36218.33
564.33	36111.83
564.53	35917.28
564.74	36586.96
564.94	35839.45
565.14	36402.64
565.34	36586.96
565.54	36275.67
565.74	36277.72
565.94	36439.51
566.14	36062.68
566.34	36449.75
566.54	36814.29
566.74	36152.79
566.94	36816.33
567.14	36894.16
567.34	36357.59
567.54	36410.84
567.74	36212.18
567.94	36398.55
568.14	36670.93
568.34	36795.85
568.54	36613.59
568.74	36912.59
568.94	36769.23
569.14	36851.15
569.34	36611.54
569.54	37055.95
569.75	36836.81
569.95	36654.54
570.15	36920.78
570.35	36914.64
570.55	37139.91
570.75	37037.51
570.95	37164.49
571.15	37146.06
571.35	37426.63
571.55	36847.05
571.75	36994.51
571.95	37357.00
572.15	36953.55
572.35	37291.46
572.55	37492.16
572.75	36920.78
572.95	37414.34
573.15	37522.88
573.35	37514.69
573.55	37357.00
573.75	36849.10
573.95	37422.53
574.15	37512.64
574.35	37526.98
574.55	37727.68
574.75	37477.83
574.95	37432.77
575.15	37422.53
575.34	37756.35
575.54	37795.26
575.74	37670.34
575.94	37731.78
576.14	37524.93
576.34	37897.66
576.54	38077.88
576.74	37891.52
576.94	37789.12
577.14	38016.44
577.34	38473.14
577.54	37979.58
577.74	38178.23
577.94	37981.63
578.14	38172.09
578.34	38378.93
578.54	37610.95
578.74	37868.99
578.94	38352.31
579.14	37985.72
579.34	38208.95
579.54	37950.91
579.74	38514.10
579.94	38251.96
580.13	38694.32
580.33	38360.50
580.53	38868.40
580.73	38542.77
580.93	38456.76
581.13	38651.31
581.33	38870.45
581.53	38813.10
581.73	38860.21
581.93	38684.08
582.13	38516.15
582.33	39122.35
582.53	38747.57
582.73	38733.23
582.92	38866.35
583.12	38931.89
583.32	39011.76
583.52	38966.70
583.72	39118.25
583.92	38976.94
584.12	39267.75
584.32	39314.86
584.52	39286.18
584.72	39187.88
584.92	39544.23
585.11	39724.45
585.31	39593.38
585.51	39372.20
585.71	39654.82
585.91	39787.94
586.11	39368.10
586.31	39194.03
586.51	39630.24
586.71	39439.78
586.91	39792.03
587.10	39753.12
587.30	39806.37
587.50	39751.07
587.70	39617.96
587.90	39802.27
588.10	39853.47
588.30	39779.74
588.50	39792.03
588.69	40015.26
588.89	39839.14
589.09	39724.45
589.29	39789.98
589.49	40109.47
589.69	39876.00
589.89	40132.00
590.08	40168.86
590.28	40359.32
590.48	40510.87
590.68	39896.48
590.88	40136.09
591.08	40285.59
591.28	39947.68
591.47	40088.99
591.67	40242.59
591.87	40236.44
592.07	40312.22
592.27	40838.54
592.47	40392.09
592.67	40097.18
592.86	40185.24
593.06	40414.62
593.26	40687.00
593.46	40621.46
593.66	40572.31
593.86	40521.11
594.05	40992.14
594.25	40701.33
594.45	40613.27
594.65	40748.43
594.85	40385.94
595.05	40781.20
595.24	40705.43
595.44	40381.85
595.64	40680.85
595.84	40730.00
596.04	40875.41
596.23	40641.94
596.43	41141.64
596.63	40873.36
596.83	41416.07
597.03	41207.18
597.22	41360.78
597.42	40994.19
597.62	40879.50
597.82	41442.70
598.02	41362.82
598.21	41309.58
598.41	41125.26
598.61	41323.91
598.81	41328.01
599.01	41465.22
599.20	41717.12
599.40	41244.04
599.60	41547.14
599.80	41385.35
600.00	41563.53
600.19	41737.60
600.39	41377.16
600.59	41608.58
600.79	41717.12
600.98	41874.82
601.18	42020.22
601.38	41915.78
601.58	42034.56
601.78	41743.75
601.97	41782.66
602.17	42202.49
602.37	42052.99
602.57	41735.56
602.76	42083.71
602.96	41414.02
603.16	42495.35
603.36	41907.58
603.55	42354.04
603.75	41930.11
603.95	42173.82
604.15	42362.23
604.34	42171.77
604.54	42216.83
604.74	42397.05
604.94	42241.40
605.13	42073.47
605.33	42552.69
605.53	42179.96
605.73	42374.52
605.92	42249.60
606.12	42145.15
606.32	42999.15
606.52	42038.65
606.71	42356.09
606.91	42808.69
607.11	42542.45
607.30	42802.55
607.50	42429.82
607.70	42630.52
607.90	42499.45
608.09	42427.77
608.29	42712.44
608.49	42345.85
608.68	42982.77
608.88	42765.68
609.08	42859.89
609.28	42745.20
609.47	42560.89
609.67	43156.85
609.87	42845.55
610.06	42960.24
610.26	42442.10
610.46	43089.26
610.66	42458.49
610.85	42906.99
611.05	42943.86
611.25	42990.96
611.44	42618.23
611.64	42614.13
611.84	42780.02
612.03	42530.17
612.23	42966.38
612.43	42603.89
612.62	42980.72
612.82	43199.85
613.02	43058.54
613.21	43042.16
613.41	42505.59
613.61	43081.07
613.80	42966.38
614.00	42904.95
614.20	43101.55
614.39	43152.75
614.59	42968.43
614.79	42546.55
614.98	42706.29
615.18	43023.73
615.38	42913.14
615.57	42808.69
615.77	42771.83
615.97	42888.56
616.16	42747.25
616.36	42792.31
616.56	43167.09
616.75	42784.12
616.95	42884.47
617.15	42616.18
617.34	42829.17
617.54	42370.43
617.74	42933.62
617.93	43132.27
618.13	42612.09
618.32	43175.28
618.52	43033.97
618.72	42558.84
618.91	42890.61
619.11	42403.19
619.31	42759.54
619.50	42810.74
619.70	42585.46
619.90	42927.47
620.09	42859.89
620.29	42493.30
620.48	42902.90
620.68	42790.26
620.88	42407.29
621.07	42962.29
621.27	42526.07
621.46	42268.03
621.66	42632.57
621.86	42450.30
622.05	42212.73
622.25	42534.26
622.44	42384.76
622.64	42300.79
622.84	42644.85
623.03	42259.84
623.23	42161.53
623.42	42415.48
623.62	42397.05
623.82	42839.41
624.01	42466.68
624.21	42528.12
624.40	42358.14
624.60	42448.25
624.80	42329.47
624.99	42601.85
625.19	41815.43
625.38	42161.53
625.58	42413.43
625.77	42526.07
625.97	42370.43
626.17	42173.82
626.36	42208.64
626.56	42233.21
626.75	42009.98
626.95	41909.63
627.14	42337.66
627.34	42517.88
627.54	42319.23
627.73	42081.66
627.93	41737.60
628.12	42151.29
628.32	42292.60
628.51	42032.51
628.71	42239.36
628.90	42001.79
629.10	42368.38
629.30	42059.13
629.49	42222.97
629.69	41954.69
629.88	42190.20
630.08	42292.60
630.27	42265.98
630.47	41848.19
630.66	42059.13
630.86	42063.23
631.05	41887.10
631.25	42024.32
631.44	41762.18
631.64	41780.61
631.84	42110.33
632.03	42139.00
632.23	42161.53
632.42	42634.61
632.62	41690.50
632.81	42014.08
633.01	41923.97
633.20	42059.13
633.40	42212.73
633.59	42192.25
633.79	41770.37
633.98	41878.91
634.18	41911.68
634.37	42188.16
634.57	41823.62
634.76	41860.48
634.96	41727.36
635.15	41969.02
635.35	41518.47
635.54	41502.09
635.74	42030.46
635.93	41811.33
636.13	41913.73
636.32	41637.25
636.52	41383.30
636.71	42069.37
636.91	41420.17
637.10	41760.13
637.30	41985.41
637.49	41385.35
637.69	41682.31
637.88	41946.50
638.08	41461.13
638.27	42175.87
638.46	41831.81
638.66	41770.37
638.85	41770.37
639.05	41745.80
639.24	42042.75
639.44	41723.27
639.63	41663.88
639.83	41837.95
640.02	41921.92
640.22	42059.13
640.41	41581.96
640.61	41268.62
640.80	41815.43
640.99	41778.56
641.19	41913.73
641.38	41428.36
641.58	41405.83
641.77	41620.87
641.97	41387.40
642.16	41536.90
642.36	41618.82
642.55	41899.39
642.74	41817.47
642.94	41876.86
643.13	41604.49
643.33	41547.14
643.52	41940.35
643.72	41647.49
643.91	41598.34
644.10	41690.50
644.30	41964.93
644.49	41205.13
644.69	41729.41
644.88	41641.35
645.08	41661.83
645.27	41497.99
645.46	41407.88
645.66	41796.99
645.85	41600.39
646.05	41620.87
646.24	41907.58
646.43	41762.18
646.63	41809.28
646.82	41887.10
647.02	41846.15
647.21	41870.72
647.40	41430.41
647.60	41749.89
647.79	41743.75
647.99	41667.97
648.18	41702.79
648.37	41870.72
648.57	41612.68
648.76	41844.10
648.96	41461.13
649.15	41729.41
649.34	41987.46
649.54	41575.81
649.73	41614.72
649.92	41350.54
650.12	41670.02
650.31	41729.41
650.51	41723.27
650.70	41940.35
650.89	41690.50
651.09	41598.34
651.28	41790.85
651.47	41745.80
651.67	41325.96
651.86	41936.26
652.06	41285.00
652.25	41966.98
652.44	41620.87
652.64	41559.43
652.83	41504.13
653.02	41221.52
653.22	41346.44
653.41	41452.94
653.60	41278.86
653.80	41530.76
653.99	41710.98
654.18	41377.16
654.38	41608.58
654.57	41647.49
654.76	41799.04
654.96	41530.76
655.15	41547.14
655.34	41350.54
655.54	41313.67
655.73	41291.15
655.92	41497.99
656.12	41786.75
656.31	41487.75
656.50	41471.37
656.70	41803.14
656.89	41198.99
657.08	41485.70
657.28	41547.14
657.47	41315.72
657.66	41334.15
657.86	41379.21
658.05	41178.51
658.24	41643.40
658.43	41274.76
658.63	41250.19
658.82	41196.94
659.01	41497.99
659.21	41434.50
659.40	41350.54
659.59	41100.68
659.79	41422.22
659.98	41586.05
660.17	41723.27
660.36	41373.06
660.56	41217.42
660.75	41452.94
660.94	41244.04
661.14	41192.84
661.33	41145.74
661.52	41119.12
661.71	41663.88
661.91	41198.99
662.10	41309.58
662.29	41395.59
662.49	41233.80
662.68	41348.49
662.87	41309.58
663.06	41454.98
663.26	41106.83
663.45	41543.05
663.64	41192.84
663.83	41246.09
664.03	41506.18
664.22	41256.33
664.41	41045.39
664.60	41129.36
664.80	41012.62
664.99	40836.50
665.18	41209.23
665.37	41332.11
665.57	41090.44
665.76	41080.21
665.95	40807.83
666.14	40813.97
666.34	40977.81
666.53	40816.02
666.72	40719.76
666.91	40691.09
667.11	40560.02
667.30	41008.53
667.49	40846.74
667.68	40881.55
667.87	40768.91
668.07	40838.54
668.26	40660.37
668.45	40793.49
668.64	40797.59
668.84	41430.41
669.03	40883.60
669.22	40996.24
669.41	40947.09
669.60	40875.41
669.80	40301.98
669.99	40994.19
670.18	40541.59
670.37	40199.58
670.57	41227.66
670.76	40373.66
670.95	40881.55
671.14	40658.32
671.33	40629.65
671.53	40916.37
671.72	41106.83
671.91	40623.51
672.10	40494.49
672.29	40641.94
672.48	40246.68
672.68	41078.16
672.87	40367.51
673.06	40672.66
673.25	40445.33
673.44	40420.76
673.64	40279.45
673.83	40148.38
674.02	40050.08
674.21	40263.07
674.40	40584.60
674.59	39957.92
674.79	40195.48
674.98	39736.74
675.17	40588.69
675.36	39929.25
675.55	40271.26
675.74	39886.24
675.94	40080.80
676.13	39804.32
676.32	40517.01
676.51	40488.34
676.70	40652.18
676.89	40275.35
677.08	40011.17
677.28	39742.88
677.47	40041.88
677.66	40351.13
677.85	40273.31
678.04	40285.59
678.23	40117.66
678.42	40363.42
678.62	39783.84
678.81	40121.76
679.00	39712.16
679.19	40029.60
679.38	39992.73
679.57	40037.79
679.76	40129.95
679.96	40117.66
680.15	39953.82
680.34	39980.45
680.53	39775.65
680.72	39939.49
680.91	40027.55
681.10	39335.34
681.29	39921.05
681.48	39679.39
681.68	39781.79
681.87	39544.23
682.06	39486.89
682.25	39169.45
682.44	39431.59
682.63	39779.74
682.82	39280.04
683.01	39542.18
683.20	39040.43
683.39	39343.53
683.59	39226.79
683.78	39493.03
683.97	38958.51
684.16	39349.67
684.35	39196.07
684.54	39165.35
684.73	39273.90
684.92	39298.47
685.11	39312.81
685.30	39581.09
685.49	39347.62
685.69	39009.71
685.88	39146.92
686.07	38854.06
686.26	39261.61
686.45	39386.54
686.64	39290.28
686.83	39282.09
687.02	39161.26
687.21	38823.34
687.40	38913.45
687.59	38886.83
687.78	38813.10
687.97	39130.54
688.16	39071.15
688.35	38423.99
688.54	38993.32
688.74	38899.12
688.93	38809.01
689.12	38522.29
689.31	38561.20
689.50	38747.57
689.69	38299.06
689.88	38264.25
690.07	38583.73
690.26	38634.93
690.45	38639.03
690.64	38524.34
690.83	38421.94
691.02	38483.38
691.21	38407.61
691.40	38167.99
691.59	38372.79
691.78	38270.39
691.97	38546.87
692.16	38315.45
692.35	38819.25
692.54	38331.83
692.73	38096.31
692.92	38413.75
693.11	38167.99
693.30	37955.00
693.49	38159.80
693.68	37801.41
693.87	38096.31
694.06	37897.66
694.25	38081.98
694.44	37774.78
694.63	38014.40
694.82	38247.86
695.01	37914.05
695.20	37594.56
695.39	37713.34
695.58	37727.68
695.77	37760.45
695.96	37516.74
696.15	37858.75
696.34	37690.82
696.53	37764.54
696.72	38131.13
696.91	37576.13
697.10	37766.59
697.29	37762.50
697.48	37357.00
697.67	37287.37
697.86	37776.83
698.05	37082.57
698.24	37418.44
698.43	37131.72
698.62	37477.83
698.81	36961.74
699.00	37344.71
699.19	36935.12
699.38	37279.18
699.57	36947.40
699.76	37236.17
699.95	37328.33
700.14	37006.80
700.32	36851.15
700.51	36869.58
700.70	37162.44
700.89	37172.68
701.08	36664.78
701.27	36601.30
701.46	37074.38
701.65	36664.78
701.84	36971.98
702.03	36906.44
702.22	36935.12
702.41	36750.80
702.60	36769.23
702.79	37014.99
702.98	36468.18
703.17	36580.82
703.35	36713.94
703.54	36330.97
703.73	36689.36
703.92	36539.86
704.11	36556.24
704.30	36337.11
704.49	36328.92
704.68	36451.80
704.87	36281.81
705.06	36404.69
705.25	36085.21
705.43	36482.52
705.62	36503.00
705.81	36376.02
706.00	36285.91
706.19	36203.99
706.38	36283.86
706.57	35958.24
706.76	35855.84
706.95	36416.98
707.14	35747.29
707.32	35968.48
707.51	35436.00
707.70	35784.16
707.89	35911.13
708.08	35968.48
708.27	35818.97
708.46	35882.46
708.65	35763.68
708.84	35839.45
709.02	35665.38
709.21	35419.62
709.40	35692.00
709.59	35030.51
709.78	35554.79
709.97	35405.28
710.16	35216.87
710.34	35134.95
710.53	35612.13
710.72	35319.27
710.91	35630.56
711.10	35280.36
711.29	35380.71
711.48	35229.16
711.66	35065.32
711.85	35304.93
712.04	35292.65
712.23	35325.41
712.42	35155.43
712.61	35106.28
712.80	35208.68
712.98	35050.99
713.17	34954.73
713.36	34805.23
713.55	34870.76
713.74	34780.65
713.93	35003.88
714.11	34872.81
714.30	34700.78
714.49	34547.18
714.68	34491.89
714.87	34754.03
715.06	34967.02
715.24	34616.82
715.43	34571.76
715.62	34237.94
715.81	34514.42
716.00	34639.34
716.18	34022.90
716.37	34432.50
716.56	34495.99
716.75	34350.58
716.94	34233.85
717.12	34162.17
717.31	34182.65
717.50	33846.78
717.69	34272.76
717.88	34098.68
718.06	33957.37
718.25	34217.46
718.44	34143.74
718.63	33924.60
718.82	33924.60
719.00	33916.41
719.19	33789.44
719.38	33781.24
719.57	33582.59
719.76	33537.54
719.94	33261.06
720.13	33367.55
720.32	33437.19
720.51	33474.05
720.69	33271.30
720.88	33175.05
721.07	33476.10
721.26	32818.70
721.44	32960.01
721.63	33275.40
721.82	32826.89
722.01	33082.89
722.20	33101.32
722.38	32925.19
722.57	32593.42
722.76	32642.57
722.95	32955.91
723.13	32679.44
723.32	32630.29
723.51	32587.28
723.70	32456.21
723.88	32456.21
724.07	32323.09
724.26	32429.59
724.44	32198.16
724.63	32486.93
724.82	32413.20
725.01	32278.04
725.19	32775.69
725.38	32271.89
725.57	32019.99
725.76	32101.91
725.94	31946.26
726.13	32022.04
726.32	32337.43
726.51	31954.46
726.69	32452.11
726.88	32345.62
727.07	31954.46
727.25	31919.64
727.44	31989.27
727.63	32032.28
727.82	32005.66
728.00	31716.89
728.19	31825.43
728.38	32054.81
728.56	31755.80
728.75	31929.88
728.94	31553.05
729.12	31933.98
729.31	31696.41
729.50	31696.41
729.69	31665.69
729.87	32116.25
730.06	31688.22
730.25	31487.52
730.43	31661.60
730.62	31622.69
730.81	31868.44
730.99	31759.90
731.18	31426.08
731.37	31503.90
731.55	31413.79
731.74	31909.40
731.93	31800.86
732.11	31696.41
732.30	31739.42
732.49	31489.57
732.67	31381.03
732.86	30998.06
733.05	31329.83
733.23	31006.25
733.42	31168.04
733.61	30848.55
733.79	31252.00
733.98	31544.86
734.17	31094.31
734.35	30897.70
734.54	30932.52
734.73	31491.62
734.91	31219.24
735.10	30901.80
735.29	31200.80
735.47	30635.56
735.66	30877.22
735.84	30742.06
736.03	30434.86
736.22	30893.61
736.40	30766.63
736.59	30817.83
736.78	30776.87
736.96	30746.15
737.15	30826.03
737.33	30791.21
737.52	30383.66
737.71	30613.04
737.89	30475.82
738.08	30690.86
738.27	30293.55
738.45	30684.72
738.64	30293.55
738.82	30443.06
739.01	30733.87
739.20	30422.58
739.38	30873.13
739.57	30283.31
739.75	30701.10
739.94	30469.68
740.13	30379.57
740.31	30320.18
740.50	30191.16
740.68	30295.60
740.87	30426.67
741.06	30414.38
741.24	30191.16
741.43	30516.78
741.61	30414.38
741.80	29982.26
741.99	30117.43
742.17	29967.93
742.36	30219.83
742.54	29713.98
742.73	29920.82
742.91	29972.02
743.10	30107.19
743.29	30029.37
743.47	30256.69
743.66	29986.36
743.84	30142.00
744.03	29869.62
744.21	29795.90
744.40	29871.67
744.59	29711.93
744.77	29632.06
744.96	29679.16
745.14	29836.86
745.33	29490.75
745.51	29697.59
745.70	29812.28
745.88	29642.30
746.07	29509.18
746.26	29517.37
746.44	29810.23
746.63	29570.62
746.81	29589.05
747.00	29288.00
747.18	29513.28
747.37	29115.97
747.55	29228.61
747.74	29535.81
747.92	28823.11
748.11	29179.46
748.29	29009.48
748.48	29087.30
748.66	29052.48
748.85	28964.42
749.03	29161.03
749.22	29222.47
749.41	29109.83
749.59	29085.25
749.78	29113.92
749.96	28829.26
750.15	28839.50
750.33	28657.23
750.52	28722.76
750.70	28702.28
750.89	28847.69
751.07	28520.01
751.26	28933.70
751.44	28694.09
751.63	28825.16
751.81	28472.91
752.00	28292.69
752.18	28552.78
752.37	28530.25
752.55	28317.26
752.74	28280.40
752.92	28421.71
753.10	28071.51
753.29	28288.59
753.47	28304.98
753.66	28204.63
753.84	28161.62
754.03	28450.38
754.21	28212.82
754.40	28272.21
754.58	28020.31
754.77	28284.50
754.95	28323.41
755.14	28114.52
755.32	27973.21
755.51	27895.38
755.69	28239.44
755.88	27692.63
756.06	27922.01
756.24	27915.86
756.43	27532.89
756.61	27829.85
756.80	27770.46
756.98	27412.06
757.17	27850.33
757.35	27838.04
757.54	27666.01
757.72	27686.49
757.90	27663.96
758.09	27522.65
758.27	27336.29
758.46	27381.34
758.64	27496.03
758.83	27774.55
759.01	27321.95
759.19	27324.00
759.38	27410.01
759.56	27385.44
759.75	27467.36
759.93	27352.67
760.12	27385.44
760.30	27444.83
760.48	27045.48
760.67	27256.42
760.85	27162.21
761.04	27272.80
761.22	27104.87
761.40	27182.69
761.59	27090.53
761.77	26781.29
761.96	26746.47
762.14	26769.00
762.32	27016.80
762.51	26947.17
762.69	27113.06
762.88	26820.20
763.06	26914.41
763.24	26582.63
763.43	26877.54
763.61	26570.35
763.80	26695.27
763.98	26695.27
764.16	26599.02
764.35	26564.20
764.53	26277.49
764.72	26281.58
764.90	26472.04
765.08	26351.21
765.27	26500.72
765.45	26183.28
765.63	25833.08
765.82	26013.30
766.00	26001.01
766.18	26209.90
766.37	26383.98
766.55	26170.99
766.74	26363.50
766.92	25851.51
767.10	26109.55
767.29	25792.12
767.47	25953.91
767.65	25865.85
767.84	25896.56
768.02	26119.79
768.20	25820.79
768.39	26152.56
768.57	25986.68
768.75	25960.05
768.94	25736.82
769.12	25542.27
769.30	25769.59
769.49	25880.18
769.67	25460.35
769.85	25212.54
770.04	25591.42
770.22	25114.24
770.40	25282.17
770.59	25261.69
770.77	25607.80
770.95	25454.20
771.14	25169.54
771.32	25327.23
771.50	25196.16
771.69	25210.50
771.87	25394.81
772.05	25136.77
772.24	25118.34
772.42	25052.80
772.60	25007.75
772.78	24925.83
772.97	24702.60
773.15	25149.06
773.33	24921.73
773.52	24805.00
773.70	24938.12
773.88	25013.89
774.07	24893.06
774.25	24954.50
774.43	24991.36
774.61	24852.10
774.80	24782.47
774.98	25118.34
775.16	24825.48
775.34	24798.85
775.53	24829.57
775.71	25237.12
775.89	24784.52
776.08	24739.46
776.26	24661.64
776.44	24653.45
776.62	24825.48
776.81	24751.75
776.99	24940.16
777.17	24878.72
777.35	25081.47
777.54	25089.67
777.72	24845.96
777.90	24802.95
778.08	25196.16
778.27	24874.63
778.45	25132.67
778.63	24852.10
778.81	24845.96
779.00	25423.48
779.18	25079.43
779.36	24999.55
779.54	24962.69
779.73	25058.95
779.91	25169.54
780.09	25138.82
780.27	25056.90
780.46	25241.21
780.64	25595.51
780.82	24950.40
781.00	25319.04
781.19	25265.79
781.37	25243.26
781.55	25007.75
781.73	25450.11
781.91	25239.17
782.10	25237.12
782.28	25388.67
782.46	24999.55
782.64	25349.76
782.82	25032.32
783.01	25304.70
783.19	25120.38
783.37	25239.17
783.55	25069.19
783.74	25116.29
783.92	25333.37
784.10	25474.68
784.28	25308.80
784.46	25126.53
784.64	25020.03
784.83	24921.73
785.01	25106.05
785.19	24899.20
785.37	25306.75
785.55	25038.47
785.74	24927.88
785.92	25005.70
786.10	25106.05
786.28	24831.62
786.46	24882.82
786.64	24696.46
786.83	25026.18
787.01	24901.25
787.19	24940.16
787.37	25040.51
787.55	25167.49
787.74	24569.48
787.92	24589.96
788.10	24323.72
788.28	24276.62
788.46	24774.28
788.64	24610.44
788.82	24524.43
789.01	24569.48
789.19	24940.16
789.37	24385.16
789.55	24499.85
789.73	24223.37
789.91	24370.83
790.09	24350.35
790.28	24323.72
790.46	24315.53
790.64	24346.25
790.82	24297.10
791.00	24303.25
791.18	23842.45
791.36	24059.54
791.55	24014.48
791.73	23738.01
791.91	23924.37
792.09	23905.94
792.27	23676.57
792.45	23838.36
792.63	23821.97
792.81	23699.09
793.00	23574.17
793.18	23262.88
793.36	23815.83
793.54	23320.22
793.72	23396.00
793.90	23525.02
794.08	23226.01
794.26	23498.39
794.44	23099.04
794.62	23062.18
794.81	23031.46
794.99	22877.86
795.17	22953.63
795.35	23207.58
795.53	23146.14
795.71	22648.49
795.89	22791.84
796.07	22443.69
796.25	22566.57
796.43	22777.51
796.61	22687.40
796.80	22638.25
796.98	22402.73
797.16	22415.02
797.34	22367.91
797.52	22410.92
797.70	22492.84
797.88	22361.77
798.06	21880.50
798.24	22464.17
798.42	22234.80
798.60	21927.60
798.78	22169.26
798.96	21997.23
799.14	22015.66
799.32	22048.43
799.51	21888.69
799.69	21905.07
799.87	21823.16
800.05	21782.20
800.23	21784.24
800.41	21698.23
800.59	21550.78
800.77	21272.25
800.95	21276.35
801.13	21270.20
801.31	21157.57
801.49	21163.71
801.67	21147.33
801.85	21153.47
802.03	21132.99
802.21	21034.69
802.39	20905.66
802.57	20846.27
802.75	20717.25
802.93	20926.14
803.11	20627.14
803.29	20704.96
803.47	20715.20
803.65	20500.17
803.83	20672.20
804.01	20717.25
804.19	20596.42
804.37	20541.13
804.55	20655.81
804.73	20266.70
804.91	20461.26
805.09	20442.82
805.27	20272.84
805.45	20317.90
805.63	20156.11
805.81	20154.06
805.99	20223.69
806.17	19945.17
806.35	20287.18
806.53	19924.69
806.71	20182.73
806.89	20002.51
807.07	19982.03
807.25	20002.51
807.43	20006.61
807.61	20039.37
807.79	19588.82
807.97	19521.24
808.15	19687.12
808.33	19613.40
808.51	19619.54
808.69	19482.33
808.87	19568.34
809.05	19252.95
809.23	19322.59
809.41	19273.43
809.59	19199.71
809.77	19470.04
809.95	19293.91
810.13	19283.67
810.31	18939.62
810.49	19123.93
810.67	18863.84
810.84	19103.45
811.02	19072.73
811.20	18773.73
811.38	18929.38
811.56	18657.00
811.74	18743.01
811.92	18493.16
812.10	18937.57
812.28	18646.76
812.46	18714.34
812.64	18681.57
812.82	18702.05
813.00	18573.03
813.18	18470.63
813.36	18640.61
813.53	18222.83
813.71	18308.84
813.89	18265.83
814.07	18331.37
814.25	18179.82
814.43	18345.70
814.61	18235.11
814.79	18190.06
814.97	18249.45
815.15	18147.05
815.33	18040.56
815.50	18032.36
815.68	18188.01
815.86	18372.33
816.04	17929.97
816.22	17843.95
816.40	18149.10
816.58	17934.06
816.76	17747.70
816.94	17817.33
817.11	17735.41
817.29	17909.49
817.47	17600.24
817.65	17501.94
817.83	17743.60
818.01	17590.00
818.19	17540.85
818.37	17370.87
818.54	17368.82
818.72	17434.36
818.90	17354.49
819.08	17217.27
819.26	17178.36
819.44	17186.55
819.62	17159.93
819.80	17116.92
819.97	17391.35
820.15	17260.28
820.33	17196.79
820.51	17231.61
820.69	17237.75
820.87	16957.18
821.05	16994.04
821.22	17075.96
821.40	16953.09
821.58	17043.20
821.76	16742.14
821.94	16985.85
822.12	16908.03
822.29	17020.67
822.47	16740.10
822.65	16756.48
822.83	16922.37
823.01	16723.71
823.19	16688.90
823.36	16623.36
823.54	16733.95
823.72	16584.45
823.90	16520.96
824.08	16418.57
824.25	16377.61
824.43	16539.40
824.61	16705.28
824.79	16404.23
824.97	16312.07
825.15	16244.49
825.32	16387.85
825.50	16209.67
825.68	16189.19
825.86	16369.41
826.04	16226.06
826.21	16250.63
826.39	16412.42
826.57	16170.76
826.75	16254.73
826.93	15851.28
827.10	15773.46
827.28	16082.70
827.46	16131.85
827.64	15965.96
827.81	15943.44
827.99	16244.49
828.17	15974.16
828.35	15752.98
828.53	15900.43
828.70	15765.26
828.88	15779.60
829.06	15929.10
829.24	16144.14
829.41	15830.80
829.59	15804.17
829.77	15480.60
829.95	15546.13
830.12	15431.44
830.30	15603.47
830.48	15630.10
830.66	15488.79
830.84	15513.36
831.01	15316.76
831.19	15681.30
831.37	15380.25
831.55	15249.18
831.72	15537.94
831.90	15662.86
832.08	15400.72
832.25	15343.38
832.43	15097.63
832.61	15191.83
832.79	15005.47
832.96	15173.40
833.14	15310.61
833.32	15130.39
833.50	15111.96
833.67	15314.71
833.85	14987.04
834.03	15021.85
834.20	15204.12
834.38	15058.71
834.56	15200.02
834.74	14921.50
834.91	14868.25
835.09	14806.81
835.27	14714.66
835.44	14755.61
835.62	14608.16
835.80	14874.40
835.98	14858.01
836.15	14702.37
836.33	14753.57
836.51	14954.27
836.68	14685.98
836.86	14622.50
837.04	14868.25
837.21	14610.21
837.39	14694.18
837.57	14655.26
837.75	14571.30
837.92	14491.43
838.10	14423.84
838.28	14303.01
838.45	14530.34
838.63	14507.81
838.81	14360.36
838.98	14495.52
839.16	14425.89
839.34	14360.36
839.51	14196.52
839.69	14161.70
839.87	14188.33
840.04	14311.21
840.22	14339.88
840.40	14397.22
840.57	13926.19
840.75	14206.76
840.93	13803.31
841.10	14290.73
841.28	14163.75
841.46	13983.53
841.63	14049.07
841.81	13981.48
841.98	14032.68
842.16	13897.52
842.34	14065.45
842.51	13745.97
842.69	14010.15
842.87	13893.42
843.04	13885.23
843.22	14040.87
843.40	14108.46
843.57	13885.23
843.75	13907.76
843.92	13741.87
844.10	13729.58
844.28	14047.02
844.45	13709.10
844.63	13897.52
844.81	13711.15
844.98	13778.73
845.16	13598.51
845.33	13606.70
845.51	13565.74
845.69	13481.78
845.86	13526.83
846.04	13557.55
846.21	13645.62
846.39	13578.03
846.57	13322.04
846.74	13440.82
846.92	13528.88
847.09	13578.03
847.27	13461.30
847.45	13391.67
847.62	13373.24
847.80	13610.80
847.97	13475.63
848.15	13336.37
848.32	13082.42
848.50	13322.04
848.68	13287.22
848.85	13029.18
849.03	13195.06
849.20	13356.85
849.38	13188.92
849.56	13260.60
849.73	13096.76
849.91	13084.47
850.08	13107.00
850.26	13117.24
850.43	12986.17
850.61	13016.89
850.78	13008.70
850.96	13084.47
851.14	13137.72
851.31	12891.96
851.49	12859.20
851.66	12959.55
851.84	13072.18
852.01	12953.40
852.19	12799.80
852.36	12820.28
852.54	12783.42
852.71	12832.57
852.89	12642.11
853.07	12865.34
853.24	12898.11
853.42	12652.35
853.59	12521.28
853.77	12818.24
853.94	12875.58
854.12	12734.27
854.29	12465.99
854.47	12644.16
854.64	12562.24
854.82	12715.84
854.99	12535.62
855.17	12558.14
855.34	12662.59
855.52	12441.41
855.69	12599.10
855.87	12564.29
856.04	12392.26
856.22	12437.31
856.39	12326.72
856.57	12578.62
856.74	12386.12
856.92	12621.63
857.09	12506.95
857.27	12083.02
857.44	12390.21
857.62	12498.75
857.79	12410.69
857.97	12379.97
858.14	12406.59
858.32	12160.84
858.49	12142.41
858.67	12242.76
858.84	12148.55
859.02	12320.58
859.19	11992.90
859.37	12087.11
859.54	12095.30
859.72	12300.10
859.89	12099.40
860.06	12048.20
860.24	12152.65
860.41	11927.37
860.59	11964.23
860.76	12111.69
860.94	11900.75
861.11	11904.84
861.29	11859.79
861.46	12062.54
861.64	11990.86
861.81	11659.09
861.98	11779.92
862.16	11943.75
862.33	11626.32
862.51	11851.60
862.68	11847.50
862.86	11681.61
863.03	11784.01
863.21	11775.82
863.38	11736.91
863.55	11626.32
863.73	11683.66
863.90	11591.50
864.08	11775.82
864.25	11577.17
864.43	11482.96
864.60	11513.68
864.77	11439.95
864.95	11519.82
865.12	11556.69
865.30	11343.70
865.47	11554.64
865.64	11419.47
865.82	11450.19
865.99	11497.30
866.17	11384.66
866.34	11304.79
866.51	11231.06
866.69	11274.07
866.86	11298.64
867.04	11353.94
867.21	11296.60
867.38	11218.77
867.56	11245.40
867.73	11237.20
867.91	10909.53
868.08	11173.72
868.25	11138.90
868.43	10903.39
868.60	11095.89
868.78	11069.27
868.95	11198.29
869.12	11126.61
869.30	10938.20
869.47	11030.36
869.64	11024.22
869.82	10872.67
869.99	10981.21
870.16	11093.85
870.34	10809.18
870.51	11005.78
870.69	10884.95
870.86	10977.11
871.03	10753.88
871.21	10864.47
871.38	10702.68
871.55	10850.14
871.73	10811.23
871.90	10696.54
872.07	10596.19
872.25	10469.22
872.42	10786.65
872.59	10508.13
872.77	10784.60
872.94	10686.30
873.11	10606.43
873.29	10608.48
873.46	10567.52
873.63	10561.37
873.81	10588.00
873.98	10307.43
874.15	10377.06
874.33	10047.33
874.50	10192.74
874.67	10358.63
874.85	10127.21
875.02	10194.79
875.19	10047.33
875.37	10188.64
875.54	10094.44
875.71	10264.42
875.88	9979.75
876.06	10151.78
876.23	10098.53
876.40	10270.56
876.58	10174.31
876.75	9979.75
876.92	10018.66
877.10	9922.41
877.27	10065.77
877.44	9836.39
877.61	9760.62
877.79	9856.87
877.96	9926.50
878.13	9877.35
878.31	9998.18
878.48	9918.31
878.65	9619.31
878.82	9842.54
879.00	9797.48
879.17	9662.32
879.34	9734.00
879.51	9834.35
879.69	9637.74
879.86	9670.51
880.03	9580.40
880.21	9656.17
880.38	9543.53
880.55	9744.24
880.72	9498.48
880.90	9697.13
881.07	9590.64
881.24	9623.41
881.41	9412.46
881.59	9604.97
881.76	9543.53
881.93	9389.94
882.10	9375.60
882.28	9525.10
882.45	9365.36
882.62	9353.07
882.79	9635.69
882.96	9258.87
883.14	9406.32
883.31	9426.80
883.48	9447.28
883.65	9318.26
883.83	9377.65
884.00	9430.90
884.17	9394.03
884.34	9420.66
884.51	9285.49
884.69	9222.00
884.86	9252.72
885.03	9316.21
885.20	9222.00
885.38	9144.18
885.55	9117.56
885.72	9156.47
885.89	9035.64
886.06	9049.97
886.24	9076.60
886.41	9019.25
886.58	9172.85
886.75	9144.18
886.92	9019.25
887.10	9107.32
887.27	9133.94
887.44	9011.06
887.61	9176.95
887.78	9140.08
887.95	8992.63
888.13	8832.89
888.30	8910.71
888.47	8982.39
888.64	9058.17
888.81	8927.10
888.99	8892.28
889.16	8771.45
889.33	8734.59
889.50	8886.14
889.67	8804.22
889.84	8945.53
890.01	8990.58
890.19	8767.35
890.36	8687.48
890.53	8877.94
890.70	8812.41
890.87	8757.11
891.04	8744.83
891.22	8685.44
891.39	8624.00
891.56	8773.50
891.73	8611.71
891.90	8613.76
892.07	8726.39
892.24	8609.66
892.42	8648.57
892.59	8558.46
892.76	8632.19
892.93	8593.28
893.10	8615.80
893.27	8529.79
893.44	8454.02
893.61	8540.03
893.79	8499.07
893.96	8492.93
894.13	8658.81
894.30	8427.39
894.47	8429.44
894.64	8439.68
894.81	8408.96
894.98	8408.96
895.15	8488.83
895.33	8402.82
895.50	8601.47
895.67	8595.32
895.84	8423.30
896.01	8376.19
896.18	8423.30
896.35	8499.07
896.52	8390.53
896.69	8238.98
896.86	8378.24
897.04	8431.49
897.21	8445.82
897.38	8456.06
897.55	8361.86
897.72	8302.47
897.89	8357.76
898.06	8363.90
898.23	8388.48
898.40	8306.56
898.57	8224.64
898.74	8324.99
898.91	8181.64
899.08	8259.46
899.26	8456.06
899.43	8466.30
899.60	8314.75
899.77	8398.72
899.94	8142.72
900.11	8134.53
900.28	8335.23
900.45	8206.21
900.62	8136.58
900.79	8198.02
900.96	8116.10
901.13	8130.44
901.30	8140.68
901.47	8279.94
901.64	8368.00
901.81	8300.42
901.98	8163.20
902.15	8220.55
902.32	8294.27
902.49	8224.64
902.66	8306.56
902.83	8077.19
903.01	8126.34
903.18	8036.23
903.35	8331.14
903.52	8171.40
903.69	8204.16
903.86	8138.63
904.03	8165.25
904.20	8302.47
904.37	8241.03
904.54	8267.65
904.71	8169.35
904.88	8105.86
905.05	8124.29
905.22	8232.83
905.39	8093.57
905.56	8161.16
905.73	8126.34
905.90	8148.87
906.07	8243.07
906.24	8183.68
906.41	8009.61
906.58	8136.58
906.75	7935.88
906.92	8089.48
907.09	7987.08
907.26	8122.24
907.43	7995.27
907.60	8083.33
907.77	8218.50
907.93	7997.32
908.10	8077.19
908.27	8236.93
908.44	8015.75
908.61	7874.44
908.78	8003.46
908.95	8269.70
909.12	8032.13
909.29	7931.78
909.46	8077.19
909.63	7933.83
909.80	7790.47
909.97	7905.16
910.14	8034.18
910.31	8077.19
910.48	7966.60
910.65	8093.57
910.82	7909.26
910.99	7956.36
911.16	7954.31
911.33	7980.93
911.50	7790.47
911.66	7808.90
911.83	7849.86
912.00	7724.94
912.17	7700.36
912.34	7702.41
912.51	7706.51
912.68	7679.88
912.85	7823.24
913.02	7731.08
913.19	7735.18
913.36	7759.75
913.53	7765.90
913.70	7464.85
913.86	7673.74
914.03	7810.95
914.20	7747.47
914.37	7643.02
914.54	7466.89
914.71	7462.80
914.88	7511.95
915.05	7442.32
915.22	7638.92
915.39	7548.81
915.55	7516.05
915.72	7585.68
915.89	7505.81
916.06	7235.47
916.23	7331.73
916.40	7364.50
916.57	7368.59
916.74	7301.01
916.91	7270.29
917.07	7258.00
917.24	7313.30
917.41	7241.62
917.58	7214.99
917.75	7157.65
917.92	7260.05
918.09	7350.16
918.26	7200.66
918.42	7167.89
918.59	7225.23
918.76	7180.18
918.93	7030.68
919.10	7153.55
919.27	6897.56
919.44	7155.60
919.60	7114.64
919.77	7069.59
919.94	7061.40
920.11	7092.12
920.28	7028.63
920.45	6809.50
920.61	7030.68
920.78	6797.21
920.95	6834.07
921.12	6881.18
921.29	6844.31
921.46	6762.39
921.62	6711.19
921.79	6864.79
921.96	6623.13
922.13	6758.30
922.30	6799.26
922.47	6633.37
922.63	6496.16
922.80	6674.33
922.97	6610.84
923.14	6598.56
923.31	6674.33
923.47	6612.89
923.64	6637.47
923.81	6500.25
923.98	6500.25
924.15	6373.28
924.32	6416.29
924.48	6455.20
924.65	6453.15
924.82	6238.11
924.99	6365.09
925.15	6258.59
925.32	6281.12
925.49	6274.98
925.66	6217.63
925.83	6209.44
925.99	6152.10
926.16	6131.62
926.33	6047.65
926.50	6107.04
926.67	6170.53
926.83	5941.16
927.00	6025.12
927.17	6107.04
927.34	5978.02
927.50	5873.57
927.67	6045.60
927.84	5973.92
928.01	5900.20
928.17	5801.90
928.34	5869.48
928.51	5861.29
928.68	5707.69
928.84	5762.98
929.01	5771.18
929.18	5601.19
929.35	5738.41
929.51	5683.11
929.68	5679.02
929.85	5658.54
930.02	5533.61
930.18	5568.43
930.35	5611.43
930.52	5515.18
930.69	5648.30
930.85	5533.61
931.02	5451.69
931.19	5478.32
931.36	5367.73
931.52	5466.03
931.69	5611.43
931.86	5423.02
932.02	5416.88
932.19	5351.34
932.36	5312.43
932.53	5255.09
932.69	5167.03
932.86	5275.57
933.03	5345.20
933.19	5234.61
933.36	5226.42
933.53	5195.70
933.70	5113.78
933.86	5103.54
934.03	4984.76
934.20	4917.17
934.36	5054.39
934.53	4962.23
934.70	4865.97
934.86	4898.74
935.03	4777.91
935.20	4779.96
935.36	4863.93
935.53	4724.66
935.70	4814.77
935.86	4683.70
936.03	4650.94
936.20	4507.58
936.36	4542.39
936.53	4718.52
936.70	4560.83
936.86	4501.44
937.03	4505.53
937.20	4417.47
937.36	4411.32
937.53	4276.16
937.70	4392.89
937.86	4229.06
938.03	4247.49
938.20	4296.64
938.36	4057.03
938.53	4224.96
938.70	4128.70
938.86	3958.72
939.03	4026.31
939.20	3973.06
939.36	4075.46
939.53	3882.95
939.70	3981.25
939.86	3813.32
940.03	3821.51
940.19	3751.88
940.36	3717.06
940.53	3712.97
940.69	3706.82
940.86	3770.31
941.03	3590.09
941.19	3452.88
941.36	3663.82
941.52	3553.23
941.69	3475.40
941.86	3469.26
942.02	3479.50
942.19	3454.92
942.35	3565.51
942.52	3278.80
942.69	3373.00
942.85	3278.80
943.02	3420.11
943.18	3407.82
943.35	3340.24
943.52	3370.96
943.68	3330.00
943.85	3196.88
944.01	3149.78
944.18	3110.86
944.35	3223.50
944.51	3178.45
944.68	3110.86
944.84	3145.68
945.01	3194.83
945.17	3223.50
945.34	3172.30
945.51	3125.20
945.67	3182.54
945.84	3133.39
946.00	2990.03
946.17	3039.19
946.33	2979.79
946.50	3100.62
946.67	3043.28
946.83	3061.71
947.00	3094.48
947.16	3045.33
947.33	3041.23
947.49	3067.86
947.66	2983.89
947.82	2967.51
947.99	2961.36
948.16	2955.22
948.32	3041.23
948.49	3086.29
948.65	3006.42
948.82	2969.55
948.98	2928.60
949.15	2953.17
949.31	3043.28
949.48	2899.92
949.64	2967.51
949.81	2957.27
949.97	3016.66
950.14	2889.68
950.30	2922.45
950.47	2963.41
950.63	2893.78
950.80	2928.60
950.96	2789.33
951.13	2996.18
951.30	2805.72
951.46	3045.33
951.63	2955.22
951.79	2967.51
951.96	2969.55
952.12	2879.44
952.29	2990.03
952.45	2906.07
952.62	2912.21
952.78	2858.96
952.94	2932.69
953.11	2811.86
953.27	2934.74
953.44	3024.85
953.60	2969.55
953.77	2885.59
953.93	2805.72
954.10	2899.92
954.26	2861.01
954.43	2836.44
954.59	2957.27
954.76	2904.02
954.92	2928.60
955.09	2912.21
955.25	2803.67
955.42	2828.24
955.58	2865.11
955.75	2867.16
955.91	2836.44
956.07	2854.87
956.24	2828.24
956.40	2885.59
956.57	2815.96
956.73	2930.64
956.90	2842.58
957.06	2793.43
957.23	2762.71
957.39	2854.87
957.56	2828.24
957.72	2797.53
957.88	2809.81
958.05	2820.05
958.21	2889.68
958.38	2746.33
958.54	2830.29
958.71	2850.77
958.87	2754.52
959.03	2848.72
959.20	2766.81
959.36	2768.85
959.53	2756.57
959.69	2840.53
959.85	2838.48
960.02	2711.51
960.18	2840.53
960.35	2752.47
960.51	2809.81
960.68	2803.67
960.84	2779.09
961.00	2705.37
961.17	2852.82
961.33	2777.05
961.50	2799.57
961.66	2676.70
961.82	2842.58
961.99	2793.43
962.15	2691.03
962.31	2758.61
962.48	2764.76
962.64	2820.05
962.81	2693.08
962.97	2723.80
963.13	2764.76
963.30	2775.00
963.46	2734.04
963.62	2744.28
963.79	2731.99
963.95	2658.26
964.12	2629.59
964.28	2762.71
964.44	2697.17
964.61	2781.14
964.77	2736.09
964.93	2756.57
965.10	2719.70
965.26	2623.45
965.42	2654.17
965.59	2641.88
965.75	2596.82
965.92	2693.08
966.08	2742.23
966.24	2658.26
966.41	2641.88
966.57	2629.59
966.73	2791.38
966.90	2731.99
967.06	2686.94
967.22	2662.36
967.39	2691.03
967.55	2590.68
967.71	2629.59
967.88	2656.22
968.04	2602.97
968.20	2562.01
968.37	2637.78
968.53	2596.82
968.69	2590.68
968.85	2617.30
969.02	2633.69
969.18	2691.03
969.34	2666.46
969.51	2623.45
969.67	2592.73
969.83	2617.30
970.00	2584.54
970.16	2533.34
970.32	2586.58
970.48	2686.94
970.65	2562.01
970.81	2615.26
970.97	2582.49
971.14	2566.10
971.30	2662.36
971.46	2525.15
971.63	2551.77
971.79	2566.10
971.95	2617.30
972.11	2424.80
972.28	2574.30
972.44	2549.72
972.60	2492.38
972.76	2432.99
972.93	2424.80
973.09	2551.77
973.25	2533.34
973.42	2541.53
973.58	2533.34
973.74	2500.57
973.90	2572.25
974.07	2496.47
974.23	2512.86
974.39	2422.75
974.55	2623.45
974.72	2418.65
974.88	2455.51
975.04	2576.34
975.20	2435.03
975.37	2510.81
975.53	2447.32
975.69	2469.85
975.85	2447.32
976.01	2426.84
976.18	2502.62
976.34	2500.57
976.50	2516.95
976.66	2467.80
976.83	2400.22
976.99	2453.47
977.15	2426.84
977.31	2398.17
977.47	2400.22
977.64	2461.66
977.80	2471.90
977.96	2451.42
978.12	2551.77
978.29	2418.65
978.45	2412.51
978.61	2383.84
978.77	2406.36
978.93	2306.01
979.10	2449.37
979.26	2406.36
979.42	2379.74
979.58	2412.51
979.74	2424.80
979.91	2400.22
980.07	2351.07
980.23	2402.27
980.39	2426.84
980.55	2344.92
980.71	2377.69
980.88	2320.35
981.04	2437.08
981.20	2336.73
981.36	2418.65
981.52	2310.11
981.68	2314.20
981.85	2412.51
982.01	2377.69
982.17	2344.92
982.33	2371.55
982.49	2478.04
982.65	2310.11
982.82	2398.17
982.98	2410.46
983.14	2312.16
983.30	2306.01
983.46	2383.84
983.62	2369.50
983.79	2269.15
983.95	2379.74
984.11	2283.49
984.27	2275.29
984.43	2285.53
984.59	2246.62
984.75	2310.11
984.91	2279.39
985.08	2371.55
985.24	2344.92
985.40	2275.29
985.56	2260.96
985.72	2369.50
985.88	2258.91
986.04	2222.05
986.20	2236.38
986.37	2328.54
986.53	2193.37
986.69	2230.24
986.85	2271.20
987.01	2244.57
987.17	2217.95
987.33	2328.54
987.49	2228.19
987.65	2277.34
987.82	2320.35
987.98	2258.91
988.14	2160.61
988.30	2176.99
988.46	2293.72
988.62	2205.66
988.78	2154.46
988.94	2191.33
989.10	2187.23
989.26	2260.96
989.42	2160.61
989.59	2176.99
989.75	2172.89
989.91	2265.05
990.07	2189.28
990.23	2242.53
990.39	2209.76
990.55	2205.66
990.71	2240.48
990.87	2160.61
991.03	2236.38
991.19	2142.18
991.35	2121.70
991.51	2228.19
991.67	2217.95
991.83	2168.80
992.00	2260.96
992.16	2154.46
992.32	2199.52
992.48	2197.47
992.64	2144.22
992.80	2176.99
992.96	2041.82
993.12	2119.65
993.28	2148.32
993.44	2189.28
993.60	2113.50
993.76	2187.23
993.92	2211.81
994.08	2191.33
994.24	2099.17
994.40	2242.53
994.56	2111.46
994.72	2078.69
994.88	2103.26
995.04	2152.42
995.20	2101.22
995.36	2148.32
995.52	2084.83
995.68	2082.78
995.84	2152.42
996.00	2074.59
996.16	2080.74
996.32	2090.98
996.48	2066.40
996.64	2041.82
996.80	2031.58
996.96	2041.82
997.12	2066.40
997.28	2158.56
997.44	2009.06
997.60	2090.98
997.76	2099.17
997.92	2084.83
998.08	2142.18
998.24	2095.07
998.40	2099.17
998.56	2176.99
998.72	2015.20
998.88	2107.36
999.04	2017.25
999.20	2088.93
999.36	2066.40
999.52	2156.51
999.68	2090.98
999.84	2080.74
1000.00	2009.06
1000.16	2088.93
1000.32	1953.76
1000.48	1974.24
1000.64	1996.77
1000.80	2060.26
1000.95	1935.33
1001.11	2041.82
1001.27	2015.20
1001.43	2064.35
1001.59	2000.87
1001.75	2080.74
1001.91	2052.06
1002.07	2007.01
1002.23	2043.87
1002.39	1986.53
1002.55	2050.02
1002.71	2000.87
1002.87	2007.01
1003.03	1964.00
1003.19	2047.97
1003.34	2043.87
1003.50	2037.73
1003.66	2002.91
1003.82	1992.67
1003.98	1941.47
1004.14	1931.23
1004.30	1986.53
1004.46	1988.58
1004.62	2017.25
1004.78	1947.62
1004.94	2068.45
1005.09	1939.43
1005.25	1961.95
1005.41	1964.00
1005.57	1951.71
1005.73	1998.82
1005.89	1925.09
1006.05	1929.19
1006.21	1939.43
1006.37	1968.10
1006.52	1920.99
1006.68	1884.13
1006.84	1990.63
1007.00	1970.15
1007.16	1968.10
1007.32	1972.19
1007.48	1875.94
1007.64	1925.09
1007.79	2002.91
1007.95	1869.80
1008.11	1941.47
1008.27	1982.43
1008.43	1877.99
1008.59	1882.08
1008.75	1972.19
1008.91	1984.48
1009.06	1902.56
1009.22	1918.95
1009.38	1951.71
1009.54	1976.29
1009.70	1929.19
1009.86	1925.09
1010.01	1822.69
1010.17	1861.60
1010.33	1896.42
1010.49	1910.75
1010.65	1974.24
1010.81	1802.21
1010.96	1875.94
1011.12	1857.51
1011.28	1880.04
1011.44	1869.80
1011.60	1859.56
1011.76	1832.93
1011.91	1888.23
1012.07	1890.28
1012.23	1861.60
1012.39	1820.64
1012.55	1877.99
1012.71	1865.70
1012.86	1863.65
1013.02	1914.85
1013.18	1789.92
1013.34	1869.80
1013.50	1898.47
1013.65	1920.99
1013.81	1869.80
1013.97	1839.08
1014.13	1853.41
1014.29	1867.75
1014.44	1882.08
1014.60	1871.84
1014.76	1855.46
1014.92	1798.12
1015.07	1867.75
1015.23	1855.46
1015.39	1824.74
1015.55	1865.70
1015.71	1861.60
1015.86	1832.93
1016.02	1822.69
1016.18	1785.83
1016.34	1812.45
1016.49	1916.90
1016.65	1800.16
1016.81	1892.32
1016.97	1757.16
1017.12	1877.99
1017.28	1759.21
1017.44	1816.55
1017.60	1740.77
1017.75	1884.13
1017.91	1773.54
1018.07	1834.98
1018.23	1847.27
1018.38	1732.58
1018.54	1851.36
1018.70	1761.25
1018.86	1820.64
1019.01	1785.83
1019.17	1689.57
1019.33	1820.64
1019.49	1736.68
1019.64	1810.40
1019.80	1863.65
1019.96	1759.21
1020.12	1818.60
1020.27	1808.36
1020.43	1753.06
1020.59	1753.06
1020.74	1783.78
1020.90	1824.74
1021.06	1755.11
1021.22	1757.16
1021.37	1761.25
1021.53	1748.97
1021.69	1763.30
1021.84	1751.01
1022.00	1794.02
1022.16	1673.19
1022.31	1767.40
1022.47	1796.07
1022.63	1712.10
1022.79	1773.54
1022.94	1800.16
1023.10	1859.56
1023.26	1777.64
1023.41	1722.34
1023.57	1742.82
1023.73	1781.73
1023.88	1855.46
1024.04	1777.64
1024.20	1710.05
1024.35	1775.59
1024.51	1783.78
1024.67	1710.05
1024.82	1722.34
1024.98	1703.91
1025.14	1726.44
1025.29	1757.16
1025.45	1779.68
1025.61	1703.91
1025.76	1736.68
1025.92	1816.55
1026.08	1767.40
1026.23	1742.82
1026.39	1808.36
1026.55	1771.49
1026.70	1771.49
1026.86	1794.02
1027.02	1765.35
1027.17	1779.68
1027.33	1757.16
1027.48	1738.73
1027.64	1685.48
1027.80	1728.49
1027.95	1785.83
1028.11	1720.29
1028.27	1765.35
1028.42	1689.57
1028.58	1708.01
1028.73	1730.53
1028.89	1695.72
1029.05	1814.50
1029.20	1765.35
>>>>>End Processed Spectral Data<<<<<
