SpectraSuite Data File
++++++++++++++++++++++++++++++++++++
Date: Tue Jun 13 12:03:49 CEST 2017
User: INFO_000
Dark Spectrum Present: No
Reference Spectrum Present: No
Number of Sampled Component Spectra: 1
Spectrometers: USB4H00879
Integration Time (usec): 30000 (USB4H00879)
Spectra Averaged: 1 (USB4H00879)
Boxcar Smoothing: 0 (USB4H00879)
Correct for Electrical Dark: No (USB4H00879)
Strobe/Lamp Enabled: No (USB4H00879)
Correct for Detector Non-linearity: No (USB4H00879)
Correct for Stray Light: No (USB4H00879)
Number of Pixels in Processed Spectrum: 3648
>>>>>Begin Processed Spectral Data<<<<<
345.13	1390.57
345.34	1390.57
345.56	1390.57
345.78	1327.08
345.99	1349.61
346.21	1630.18
346.42	1538.02
346.64	1544.17
346.86	1589.22
347.07	1517.54
347.29	1533.93
347.50	1501.16
347.72	1472.49
347.94	1585.13
348.15	1478.63
348.37	1464.30
348.59	1574.89
348.80	1546.22
349.02	1597.42
349.23	1589.22
349.45	1640.42
349.67	1730.53
349.88	1595.37
350.10	1675.24
350.31	1632.23
350.53	1527.78
350.75	1658.85
350.96	1562.60
351.18	1677.29
351.39	1566.70
351.61	1581.03
351.82	1636.33
352.04	1724.39
352.26	1654.76
352.47	1644.52
352.69	1652.71
352.90	1626.09
353.12	1648.61
353.34	1564.65
353.55	1677.29
353.77	1585.13
353.98	1648.61
354.20	1603.56
354.41	1673.19
354.63	1648.61
354.85	1744.87
355.06	1669.09
355.28	1689.57
355.49	1722.34
355.71	1667.05
355.92	1718.25
356.14	1628.14
356.35	1597.42
356.57	1662.95
356.79	1601.51
357.00	1597.42
357.22	1736.68
357.43	1632.23
357.65	1728.49
357.86	1654.76
358.08	1722.34
358.29	1769.44
358.51	1724.39
358.72	1755.11
358.94	1611.75
359.16	1689.57
359.37	1693.67
359.59	1669.09
359.80	1769.44
360.02	1687.53
360.23	1654.76
360.45	1718.25
360.66	1654.76
360.88	1687.53
361.09	1679.33
361.31	1722.34
361.52	1742.82
361.74	1697.77
361.95	1759.21
362.17	1679.33
362.38	1789.92
362.60	1738.73
362.81	1718.25
363.03	1703.91
363.24	1720.29
363.46	1701.86
363.67	1681.38
363.89	1720.29
364.10	1767.40
364.32	1695.72
364.53	1769.44
364.75	1660.90
364.96	1748.97
365.18	1814.50
365.39	1720.29
365.61	1699.81
365.82	1785.83
366.04	1822.69
366.25	1691.62
366.47	1673.19
366.68	1738.73
366.90	1748.97
367.11	1738.73
367.33	1738.73
367.54	1693.67
367.76	1732.58
367.97	1787.88
368.19	1761.25
368.40	1714.15
368.62	1716.20
368.83	1722.34
369.05	1732.58
369.26	1732.58
369.48	1736.68
369.69	1703.91
369.91	1791.97
370.12	1781.73
370.33	1771.49
370.55	1734.63
370.76	1810.40
370.98	1779.68
371.19	1771.49
371.41	1765.35
371.62	1802.21
371.84	1769.44
372.05	1826.79
372.27	1759.21
372.48	1806.31
372.69	1857.51
372.91	1794.02
373.12	1894.37
373.34	1791.97
373.55	1894.37
373.77	1902.56
373.98	1845.22
374.20	1851.36
374.41	1918.95
374.62	1832.93
374.84	1918.95
375.05	1896.42
375.27	1886.18
375.48	1882.08
375.70	1886.18
375.91	1820.64
376.12	1920.99
376.34	1947.62
376.55	1955.81
376.77	1910.75
376.98	1877.99
377.19	1886.18
377.41	1918.95
377.62	1970.15
377.84	1955.81
378.05	2011.11
378.27	2004.96
378.48	1980.39
378.69	1994.72
378.91	1966.05
379.12	1976.29
379.34	1978.34
379.55	2017.25
379.76	1937.38
379.98	1957.86
380.19	1970.15
380.41	1945.57
380.62	1964.00
380.83	1902.56
381.05	1939.43
381.26	1990.63
381.47	1949.67
381.69	1970.15
381.90	2090.98
382.12	2004.96
382.33	1994.72
382.54	1992.67
382.76	1970.15
382.97	1974.24
383.19	1976.29
383.40	2043.87
383.61	2009.06
383.83	2072.54
384.04	2025.44
384.25	2017.25
384.47	2031.58
384.68	2068.45
384.89	2015.20
385.11	2050.02
385.32	2076.64
385.54	2041.82
385.75	2136.03
385.96	2113.50
386.18	2158.56
386.39	2152.42
386.60	2088.93
386.82	2109.41
387.03	2047.97
387.24	2105.31
387.46	2158.56
387.67	2111.46
387.88	2148.32
388.10	2125.79
388.31	2181.09
388.52	2156.51
388.74	2273.25
388.95	2111.46
389.16	2127.84
389.38	2170.85
389.59	2246.62
389.80	2273.25
390.02	2158.56
390.23	2244.57
390.44	2199.52
390.66	2207.71
390.87	2240.48
391.08	2234.33
391.30	2346.97
391.51	2215.90
391.72	2248.67
391.94	2293.72
392.15	2293.72
392.36	2260.96
392.58	2265.05
392.79	2344.92
393.00	2303.96
393.22	2375.64
393.43	2400.22
393.64	2449.37
393.85	2504.67
394.07	2342.88
394.28	2359.26
394.49	2379.74
394.71	2301.92
394.92	2480.09
395.13	2365.40
395.35	2336.73
395.56	2435.03
395.77	2346.97
395.98	2549.72
396.20	2484.19
396.41	2443.23
396.62	2504.67
396.84	2392.03
397.05	2418.65
397.26	2475.99
397.47	2465.75
397.69	2455.51
397.90	2523.10
398.11	2519.00
398.32	2586.58
398.54	2492.38
398.75	2482.14
398.96	2523.10
399.18	2578.39
399.39	2609.11
399.60	2611.16
399.81	2490.33
400.03	2607.06
400.24	2680.79
400.45	2613.21
400.66	2678.74
400.88	2596.82
401.09	2684.89
401.30	2668.50
401.51	2658.26
401.73	2643.93
401.94	2668.50
402.15	2832.34
402.36	2682.84
402.58	2701.27
402.79	2701.27
403.00	2758.61
403.21	2713.56
403.43	2742.23
403.64	2721.75
403.85	2760.66
404.06	2781.14
404.27	2719.70
404.49	2791.38
404.70	2809.81
404.91	2740.18
405.12	2844.63
405.34	2842.58
405.55	2975.70
405.76	2811.86
405.97	2791.38
406.19	2955.22
406.40	2797.53
406.61	2844.63
406.82	2926.55
407.03	2910.16
407.25	2828.24
407.46	2965.46
407.67	2926.55
407.88	2885.59
408.09	2899.92
408.31	2852.82
408.52	2820.05
408.73	2967.51
408.94	2987.99
409.15	3059.67
409.37	3065.81
409.58	3041.23
409.79	3049.43
410.00	3008.47
410.21	2906.07
410.43	2979.79
410.64	3123.15
410.85	3055.57
411.06	3041.23
411.27	3121.10
411.48	3129.30
411.70	3080.14
411.91	3022.80
412.12	3143.63
412.33	3121.10
412.54	3157.97
412.76	3297.23
412.97	3102.67
413.18	3141.58
413.39	3145.68
413.60	3147.73
413.81	3151.82
414.03	3235.79
414.24	3186.64
414.45	3381.20
414.66	3223.50
414.87	3311.57
415.08	3225.55
415.30	3307.47
415.51	3268.56
415.72	3246.03
415.93	3403.72
416.14	3250.13
416.35	3252.17
416.56	3319.76
416.78	3299.28
416.99	3270.61
417.20	3260.37
417.41	3373.00
417.62	3416.01
417.83	3520.46
418.04	3504.07
418.26	3344.33
418.47	3418.06
418.68	3551.18
418.89	3422.16
419.10	3538.89
419.31	3510.22
419.52	3459.02
419.73	3518.41
419.95	3618.76
420.16	3465.16
420.37	3594.19
420.58	3514.31
420.79	3465.16
421.00	3629.00
421.21	3676.10
421.42	3518.41
421.63	3653.58
421.85	3672.01
422.06	3725.26
422.27	3733.45
422.48	3608.52
422.69	3762.12
422.90	3694.54
423.11	3725.26
423.32	3817.41
423.53	3690.44
423.75	3878.85
423.96	3925.96
424.17	3758.02
424.38	3915.72
424.59	3878.85
424.80	3975.11
425.01	3876.80
425.22	3956.68
425.43	3917.76
425.64	4081.60
425.85	4085.70
426.06	3915.72
426.28	3993.54
426.49	4022.21
426.70	3991.49
426.91	4011.97
427.12	4181.95
427.33	4081.60
427.54	4075.46
427.75	4163.52
427.96	4200.38
428.17	4073.41
428.38	4171.71
428.59	4337.60
428.80	4272.06
429.01	4317.12
429.23	4323.26
429.44	4429.76
429.65	4415.42
429.86	4396.99
430.07	4337.60
430.28	4392.89
430.49	4345.79
430.70	4560.83
430.91	4347.84
431.12	4399.04
431.33	4501.44
431.54	4515.77
431.75	4446.14
431.96	4624.31
432.17	4515.77
432.38	4491.20
432.59	4698.04
432.80	4605.88
433.01	4695.99
433.22	4759.48
433.43	4628.41
433.64	4599.74
433.85	4652.98
434.06	4749.24
434.27	4759.48
434.49	4698.04
434.70	4919.22
434.91	4757.43
435.12	4753.34
435.33	4919.22
435.54	4958.13
435.75	4747.19
435.96	4888.50
436.17	4757.43
436.38	4960.18
436.59	4966.32
436.80	4947.89
437.01	5081.01
437.22	5121.97
437.43	5023.67
437.64	4835.25
437.85	5146.55
438.06	5005.24
438.27	5113.78
438.48	5019.57
438.69	5164.98
438.90	5083.06
439.11	5021.62
439.32	5169.07
439.53	5214.13
439.74	5189.55
439.95	5201.84
440.16	5201.84
440.37	5207.98
440.57	5066.67
440.78	5304.24
440.99	5414.83
441.20	5431.21
441.41	5218.22
441.62	5365.68
441.83	5271.47
442.04	5312.43
442.25	5513.13
442.46	5547.95
442.67	5572.52
442.88	5699.50
443.09	5494.70
443.30	5466.03
443.51	5504.94
443.72	5787.56
443.93	5621.67
444.14	5701.54
444.35	5580.71
444.56	5621.67
444.77	5605.29
444.98	5703.59
445.19	5623.72
445.40	5736.36
445.61	5734.31
445.81	5842.85
446.02	5693.35
446.23	5795.75
446.44	5750.70
446.65	5832.62
446.86	5816.23
447.07	5754.79
447.28	5920.68
447.49	5990.31
447.70	5947.30
447.91	5889.96
448.12	6002.60
448.33	6090.66
448.54	6043.56
448.74	6061.99
448.95	6094.76
449.16	5986.21
449.37	6358.94
449.58	6055.84
449.79	6225.82
450.00	6029.22
450.21	6119.33
450.42	6209.44
450.63	6352.80
450.84	6416.29
451.05	6234.02
451.25	6244.26
451.46	6182.82
451.67	6387.61
451.88	6520.73
452.09	6463.39
452.30	6453.15
452.51	6426.53
452.72	6487.96
452.93	6631.32
453.13	6514.59
453.34	6530.97
453.55	6496.16
453.76	6643.61
453.97	7100.31
454.18	6657.95
454.39	6766.49
454.60	6707.10
454.81	6674.33
455.01	6860.70
455.22	6627.23
455.43	6711.19
455.64	7006.10
455.85	7171.99
456.06	7145.36
456.27	6848.41
456.48	6938.52
456.68	7051.16
456.89	6973.33
457.10	7141.27
457.31	7034.77
457.52	7088.02
457.73	7214.99
457.94	7526.29
458.14	7327.63
458.35	7319.44
458.56	7165.84
458.77	7335.82
458.98	7421.84
459.19	7335.82
459.39	7622.54
459.60	7636.88
459.81	7468.94
460.02	7690.12
460.23	7567.24
460.44	7831.43
460.65	7647.12
460.85	7724.94
461.06	7952.26
461.27	7561.10
461.48	8048.52
461.69	8159.11
461.89	7870.34
462.10	8091.52
462.31	7876.49
462.52	7937.93
462.73	8019.85
462.94	8318.85
463.14	8296.32
463.35	8286.08
463.56	8734.59
463.77	8445.82
463.98	8316.80
464.18	8376.19
464.39	8423.30
464.60	8574.85
464.81	8617.85
465.02	8611.71
465.23	8683.39
465.43	8793.98
465.64	8832.89
465.85	8705.92
466.06	8740.73
466.27	8959.86
466.47	9111.41
466.68	9129.84
466.89	9099.13
467.10	9236.34
467.30	9025.40
467.51	9205.62
467.72	9346.93
467.93	8959.86
468.14	9183.09
468.34	9437.04
468.55	9445.23
468.76	9359.22
468.97	9428.85
469.17	9514.86
469.38	9662.32
469.59	9764.72
469.80	9666.41
470.01	9772.91
470.21	9727.85
470.42	10006.38
470.63	9989.99
470.84	9889.64
471.04	10121.06
471.25	10110.82
471.46	10100.58
471.67	10342.24
471.87	10268.52
472.08	10430.30
472.29	10467.17
472.50	10442.59
472.70	10153.83
472.91	10403.68
473.12	10735.45
473.33	10743.64
473.53	10757.98
473.74	10852.19
473.95	10927.96
474.16	11065.18
474.36	11249.49
474.57	11278.16
474.78	11470.67
474.99	11153.24
475.19	11099.99
475.40	11663.18
475.61	11802.44
475.81	11540.30
476.02	11841.36
476.23	11833.16
476.44	11738.96
476.64	12068.68
476.85	12023.62
477.06	12011.34
477.27	12302.15
477.47	12187.46
477.68	12232.52
477.89	12388.16
478.09	12476.23
478.30	12644.16
478.51	12414.79
478.71	12648.26
478.92	12764.99
479.13	12687.17
479.34	12842.81
479.54	13080.38
479.75	13115.19
479.96	12914.49
480.16	13055.80
480.37	13358.90
480.58	13317.94
480.78	13625.14
480.99	13465.39
481.20	13672.24
481.41	13526.83
481.61	14004.01
481.82	14059.31
482.03	13866.80
482.23	13688.62
482.44	13952.81
482.65	14272.29
482.85	14133.03
483.06	14290.73
483.27	14307.11
483.47	14561.06
483.68	14526.24
483.89	14624.54
484.09	14774.05
484.30	14763.81
484.51	14991.13
484.71	15021.85
484.92	15036.19
485.13	15001.37
485.33	15015.71
485.54	15361.81
485.75	15345.43
485.95	15357.72
486.16	15675.15
486.37	15652.63
486.57	15666.96
486.78	15644.43
486.98	15589.14
487.19	15789.84
487.40	16082.70
487.60	16002.83
487.81	16205.58
488.02	16312.07
488.22	16084.75
488.43	16391.94
488.64	16469.76
488.84	16545.54
489.05	16637.70
489.25	16449.28
489.46	17053.44
489.67	16987.90
489.87	16832.26
490.08	16885.50
490.29	17258.23
490.49	17352.44
490.70	17137.40
490.90	17415.93
491.11	17372.92
491.32	17532.66
491.52	17606.39
491.73	17440.50
491.94	17657.59
492.14	17573.62
492.35	17725.17
492.55	17917.68
492.76	17925.87
492.97	18147.05
493.17	17993.45
493.38	18104.04
493.58	18509.54
493.79	18519.78
494.00	18181.87
494.20	18355.94
494.41	18665.19
494.61	18956.00
494.82	18720.48
495.02	18683.62
495.23	18640.61
495.44	18812.64
495.64	18800.35
495.85	18986.72
496.05	19158.75
496.26	19087.07
496.47	19517.14
496.67	19076.83
496.88	19396.31
497.08	19234.52
497.29	19347.16
497.49	19472.09
497.70	19887.82
497.91	19750.61
498.11	19701.46
498.32	19824.34
498.52	20080.33
498.73	20342.47
498.93	20215.50
499.14	20049.61
499.34	20186.83
499.55	20283.08
499.76	20317.90
499.96	20268.75
500.17	20508.36
500.37	20537.03
500.58	20496.07
500.78	20692.68
500.99	20700.87
501.19	20747.97
501.40	20793.03
501.60	20592.33
501.81	20805.31
502.02	20901.57
502.22	20793.03
502.43	21165.76
502.63	21143.23
502.84	21415.61
503.04	21044.93
503.25	21268.16
503.45	21208.76
503.66	21610.17
503.86	21219.00
504.07	21452.47
504.27	21569.21
504.48	21896.88
504.68	21763.76
504.89	21993.14
505.09	21864.11
505.30	21860.02
505.50	21792.44
505.71	22030.00
505.91	22245.04
506.12	22177.45
506.32	22023.86
506.53	22283.95
506.73	22251.18
506.94	22161.07
507.14	22329.00
507.35	22251.18
507.55	22501.03
507.76	22550.18
507.96	22496.94
508.17	22560.42
508.37	22556.33
508.58	22691.49
508.78	22628.01
508.99	22765.22
509.19	22681.25
509.40	22675.11
509.60	22931.11
509.81	22931.11
510.01	23029.41
510.22	23041.70
510.42	23346.84
510.63	23406.23
510.83	23207.58
511.04	22896.29
511.24	23414.43
511.44	23080.61
511.65	23223.97
511.85	23279.26
512.06	23322.27
512.26	23570.07
512.47	23459.48
512.67	23516.83
512.88	23555.74
513.08	23361.18
513.29	23895.70
513.49	23746.20
513.69	23529.11
513.90	23699.09
514.10	23963.28
514.31	24174.22
514.51	23801.49
514.72	23883.41
514.92	23899.80
515.13	24112.78
515.33	24049.30
515.53	24258.19
515.74	24135.31
515.94	24428.17
516.15	24309.39
516.35	24186.51
516.56	24651.40
516.76	24575.62
516.96	24315.53
517.17	24475.27
517.37	24602.25
517.58	24684.17
517.78	24886.92
517.99	24610.44
518.19	24927.88
518.39	24766.09
518.60	24782.47
518.80	24714.89
519.01	25157.25
519.21	24954.50
519.41	24962.69
519.62	24753.80
519.82	25020.03
520.03	25249.41
520.23	25239.17
520.43	25040.51
520.64	25517.69
520.84	25632.38
521.05	25474.68
521.25	25783.93
521.45	25566.84
521.66	25925.24
521.86	25650.81
522.07	25579.13
522.27	26005.11
522.47	25796.21
522.68	26066.55
522.88	26009.20
523.08	25902.71
523.29	26269.30
523.49	26310.25
523.70	26199.66
523.90	26615.40
524.10	26113.65
524.31	26465.90
524.51	26357.36
524.71	26525.29
524.92	26537.58
525.12	26699.37
525.33	26637.93
525.53	26556.01
525.73	26971.75
525.94	26775.14
526.14	27031.14
526.34	27127.39
526.55	27276.90
526.75	26945.12
526.95	27068.00
527.16	27170.40
527.36	27371.10
527.56	27498.08
527.77	27752.02
527.97	27461.21
528.17	27532.89
528.38	27901.53
528.58	27680.35
528.78	27932.25
528.99	27616.86
529.19	28005.97
529.39	27790.94
529.60	28094.04
529.80	28124.75
530.00	27887.19
530.21	28304.98
530.41	28341.84
530.61	28302.93
530.82	28292.69
531.02	28053.08
531.22	28485.20
531.43	28485.20
531.63	29003.33
531.83	29214.27
532.04	29251.14
532.24	28747.34
532.44	29044.29
532.64	29275.71
532.85	29218.37
533.05	29404.74
533.25	29169.22
533.46	29218.37
533.66	29529.66
533.86	29453.89
534.07	29595.20
534.27	29455.93
534.47	29767.23
534.67	29666.88
534.88	29793.85
535.08	29718.07
535.28	30352.94
535.49	29902.39
535.69	30414.38
535.89	30359.09
536.09	30279.22
536.30	30768.68
536.50	30602.80
536.70	30610.99
536.91	30549.55
537.11	30567.98
537.31	30586.41
537.51	30801.45
537.72	30979.62
537.92	31116.84
538.12	31161.89
538.32	30799.40
538.53	30981.67
538.73	31280.67
538.93	31419.94
539.13	31237.67
539.34	30830.12
539.54	31260.20
539.74	31340.07
539.94	31501.86
540.15	31102.50
540.35	31796.76
540.55	31669.79
540.75	31557.15
540.96	31888.92
541.16	31782.43
541.36	31813.15
541.56	32030.23
541.77	32177.68
541.97	31960.60
542.17	32255.51
542.37	31782.43
542.58	31960.60
542.78	32204.31
542.98	32159.25
543.18	32433.68
543.38	32525.84
543.59	32568.85
543.79	32693.77
543.99	32423.44
544.19	32755.21
544.40	32366.10
544.60	33072.65
544.80	32738.83
545.00	32753.16
545.20	33041.93
545.41	32656.91
545.61	33084.94
545.81	33084.94
546.01	33316.36
546.21	32914.95
546.42	32931.34
546.62	33009.16
546.82	33396.23
547.02	33310.21
547.22	33320.45
547.43	33342.98
547.63	33222.15
547.83	33203.72
548.03	32912.91
548.23	33578.50
548.44	33347.08
548.64	33480.19
548.84	33330.69
549.04	33820.16
549.24	34100.73
549.45	33629.69
549.65	33553.92
549.85	33945.08
550.05	34041.34
550.25	34266.61
550.45	34264.57
550.66	34287.09
550.86	33691.13
551.06	34309.62
551.26	34182.65
551.46	33994.23
551.66	34067.96
551.87	33947.13
552.07	34104.82
552.27	34330.10
552.47	34258.42
552.67	34592.24
552.87	34293.24
553.07	34481.65
553.28	34692.59
553.48	34543.09
553.68	34446.83
553.88	34276.85
554.08	34807.28
554.28	34659.82
554.48	34321.91
554.69	34704.88
554.89	34555.38
555.09	34467.31
555.29	34399.73
555.49	34424.31
555.69	34754.03
555.89	34719.21
556.10	34747.89
556.30	34823.66
556.50	35040.75
556.70	34815.47
556.90	34921.96
557.10	34885.10
557.30	34805.23
557.50	34827.76
557.70	34903.53
557.91	34977.26
558.11	34915.82
558.31	35161.58
558.51	35026.41
558.71	34954.73
558.91	35067.37
559.11	35030.51
559.31	35417.57
559.51	34840.04
559.72	35091.94
559.92	35249.64
560.12	34940.39
560.32	35153.38
560.52	35141.10
560.72	35560.93
560.92	35208.68
561.12	35165.67
561.32	35765.73
561.52	34932.20
561.72	35319.27
561.93	35100.14
562.13	35300.84
562.33	35098.09
562.53	35800.54
562.73	35010.03
562.93	35212.77
563.13	35409.38
563.33	35243.49
563.53	35403.24
563.73	35583.46
563.93	35794.40
564.13	35546.59
564.33	35681.76
564.53	35595.74
564.74	36046.30
564.94	35517.92
565.14	35804.64
565.34	35669.47
565.54	35698.14
565.74	35685.86
565.94	36373.97
566.14	35583.46
566.34	35810.78
566.54	35931.61
566.74	35882.46
566.94	36048.35
567.14	36122.07
567.34	35958.24
567.54	36222.42
567.74	35737.05
567.94	35562.98
568.14	36423.12
568.34	36369.88
568.54	35923.42
568.74	35898.84
568.94	36277.72
569.14	36285.91
569.34	36398.55
569.54	36302.29
569.75	36189.66
569.95	36431.32
570.15	36791.76
570.35	36175.32
570.55	36445.65
570.75	36556.24
570.95	36472.28
571.15	36599.25
571.35	36113.88
571.55	36541.91
571.75	36609.49
571.95	36556.24
572.15	36756.94
572.35	36715.98
572.55	36386.26
572.75	36713.94
572.95	36728.27
573.15	36861.39
573.35	36462.04
573.55	36699.60
573.75	36922.83
573.95	36988.36
574.15	36820.43
574.35	36945.36
574.55	36472.28
574.75	36789.71
574.95	36939.21
575.15	36679.12
575.34	36789.71
575.54	37207.50
575.74	37262.79
575.94	37150.15
576.14	36881.87
576.34	37012.94
576.54	37359.05
576.74	36961.74
576.94	37084.62
577.14	37266.89
577.34	37694.91
577.54	37012.94
577.74	37199.30
577.94	37025.23
578.14	37606.85
578.34	37205.45
578.54	37387.72
578.74	36924.88
578.94	37590.47
579.14	36988.36
579.34	37281.22
579.54	37101.00
579.74	37768.64
579.94	37494.21
580.13	37854.65
580.33	37690.82
580.53	38030.78
580.73	37596.61
580.93	37692.86
581.13	37471.68
581.33	37801.41
581.53	37699.01
581.73	37844.41
581.93	38309.30
582.13	38026.68
582.33	37776.83
582.53	37809.60
582.73	38055.36
582.92	38403.51
583.12	38053.31
583.32	38206.90
583.52	37813.70
583.72	38456.76
583.92	38282.68
584.12	38145.47
584.32	38167.99
584.52	38268.34
584.72	38661.55
584.92	38692.27
585.11	38634.93
585.31	38661.55
585.51	38835.63
585.71	38579.64
585.91	38950.32
586.11	38444.47
586.31	38528.44
586.51	38634.93
586.71	38565.30
586.91	38825.39
587.10	38477.24
587.30	39144.87
587.50	38596.02
587.70	38927.79
587.90	38733.23
588.10	38706.61
588.30	38536.63
588.50	38993.32
588.69	38739.38
588.89	38743.47
589.09	38954.41
589.29	38729.14
589.49	39187.88
589.69	38972.85
589.89	39386.54
590.08	38931.89
590.28	39005.61
590.48	38823.34
590.68	38776.24
590.88	38909.36
591.08	38968.75
591.28	39189.93
591.47	39292.33
591.67	39353.77
591.87	39280.04
592.07	39032.24
592.27	39151.02
592.47	39431.59
592.67	39239.08
592.86	38948.27
593.06	38970.80
593.26	39527.84
593.46	39681.44
593.66	39187.88
593.86	39198.12
594.05	39239.08
594.25	39681.44
594.45	39316.90
594.65	39251.37
594.85	39280.04
595.05	39726.50
595.24	39415.21
595.44	39413.16
595.64	39318.95
595.84	39404.97
596.04	39398.82
596.23	39642.53
596.43	39724.45
596.63	39656.87
596.83	39755.17
597.03	39869.86
597.22	40191.39
597.42	40027.55
597.62	40017.31
597.82	39826.85
598.02	39957.92
598.21	40076.70
598.41	39671.20
598.61	40084.89
598.81	39775.65
599.01	40091.04
599.20	40410.52
599.40	39900.58
599.60	40129.95
599.80	40111.52
600.00	39929.25
600.19	40033.69
600.39	40136.09
600.59	40033.69
600.79	40332.70
600.98	40088.99
601.18	40342.94
601.38	40283.55
601.58	40252.83
601.78	40523.16
601.97	40482.20
602.17	40545.69
602.37	40226.20
602.57	40568.21
602.76	40371.61
602.96	40652.18
603.16	40725.91
603.36	40691.09
603.55	40697.24
603.75	40580.50
603.95	40691.09
604.15	40613.27
604.34	40781.20
604.54	40799.63
604.74	41076.11
604.94	40287.64
605.13	41239.95
605.33	40637.84
605.53	40676.76
605.73	41080.21
605.92	40592.79
606.12	41100.68
606.32	40983.95
606.52	40809.87
606.71	41266.57
606.91	41190.80
607.11	40920.46
607.30	41067.92
607.50	41303.43
607.70	41588.10
607.90	41256.33
608.09	41450.89
608.29	41129.36
608.49	41102.73
608.68	41289.10
608.88	41299.34
609.08	41538.95
609.28	41270.67
609.47	40861.07
609.67	41311.63
609.87	41317.77
610.06	41708.93
610.26	41497.99
610.46	41452.94
610.66	41368.97
610.85	41354.63
611.05	41018.77
611.25	41604.49
611.44	40859.02
611.64	41514.37
611.84	40908.18
612.03	41645.44
612.23	41303.43
612.43	41424.26
612.62	41198.99
612.82	41225.61
613.02	41608.58
613.21	41330.06
613.41	40979.85
613.61	41008.53
613.80	41100.68
614.00	41477.51
614.20	41368.97
614.39	41317.77
614.59	41266.57
614.79	40891.79
614.98	41174.41
615.18	41401.74
615.38	41389.45
615.57	41055.63
615.77	41280.91
615.97	41645.44
616.16	41145.74
616.36	41401.74
616.56	41254.28
616.75	41160.08
616.95	40983.95
617.15	40740.24
617.34	41076.11
617.54	41018.77
617.74	41231.75
617.93	41344.39
618.13	41172.36
618.32	41303.43
618.52	40779.15
618.72	40983.95
618.91	41106.83
619.11	41112.97
619.31	40965.52
619.50	41072.01
619.70	40801.68
619.90	40836.50
620.09	41065.87
620.29	40920.46
620.48	41072.01
620.68	41139.60
620.88	40883.60
621.07	41084.30
621.27	41022.86
621.46	40965.52
621.66	41006.48
621.86	40660.37
622.05	40824.21
622.25	41115.02
622.44	40875.41
622.64	40553.88
622.84	40687.00
623.03	40744.34
623.23	40676.76
623.42	40865.17
623.62	40764.82
623.82	41018.77
624.01	40474.01
624.21	40605.08
624.40	40832.40
624.60	40906.13
624.80	40637.84
624.99	40596.88
625.19	40127.90
625.38	40502.68
625.58	40566.16
625.77	40639.89
625.97	40680.85
626.17	40433.05
626.36	40699.28
626.56	40986.00
626.75	40246.68
626.95	40656.28
627.14	40324.50
627.34	40824.21
627.54	40431.00
627.73	40324.50
627.93	40451.48
628.12	40367.51
628.32	40568.21
628.51	40521.11
628.71	40699.28
628.90	40451.48
629.10	40414.62
629.30	40336.79
629.49	40301.98
629.69	40443.29
629.88	40385.94
630.08	40404.38
630.27	40465.81
630.47	40383.90
630.66	40215.96
630.86	40582.55
631.05	40048.03
631.25	40643.99
631.44	40166.81
631.64	40496.53
631.84	40248.73
632.03	40431.00
632.23	40238.49
632.42	40699.28
632.62	40355.22
632.81	40361.37
633.01	40199.58
633.20	40740.24
633.40	40140.19
633.59	40658.32
633.79	39974.30
633.98	40222.11
634.18	40431.00
634.37	40265.11
634.57	40244.63
634.76	40041.88
634.96	40480.15
635.15	40342.94
635.35	39806.37
635.54	39769.51
635.74	40527.25
635.93	40289.69
636.13	40197.53
636.32	40570.26
636.52	39630.24
636.71	39968.16
636.91	40125.85
637.10	40146.33
637.30	39896.48
637.49	40093.08
637.69	40111.52
637.88	40195.48
638.08	39847.33
638.27	40236.44
638.46	40146.33
638.66	39876.00
638.85	39976.35
639.05	40209.82
639.24	40736.15
639.44	39841.18
639.63	40095.13
639.83	39974.30
640.02	40152.48
640.22	39941.53
640.41	40273.31
640.61	39767.46
640.80	39947.68
640.99	39929.25
641.19	40005.02
641.38	39945.63
641.58	39957.92
641.77	39794.08
641.97	39966.11
642.16	39597.48
642.36	39873.95
642.55	39900.58
642.74	40041.88
642.94	40115.61
643.13	39970.21
643.33	39994.78
643.52	40363.42
643.72	39808.42
643.91	40127.90
644.10	40113.56
644.30	40066.46
644.49	39751.07
644.69	40357.27
644.88	39673.25
645.08	40113.56
645.27	39945.63
645.46	39931.29
645.66	40428.95
645.85	39744.93
646.05	39857.57
646.24	40029.60
646.43	39896.48
646.63	40127.90
646.82	39822.75
647.02	40119.71
647.21	39968.16
647.40	39636.39
647.60	40209.82
647.79	40177.05
647.99	39808.42
648.18	39665.06
648.37	40156.57
648.57	40078.75
648.76	40123.80
648.96	40068.51
649.15	40164.76
649.34	40005.02
649.54	40185.24
649.73	39849.38
649.92	40310.17
650.12	39775.65
650.31	40308.12
650.51	39724.45
650.70	40078.75
650.89	39974.30
651.09	40617.36
651.28	40144.28
651.47	40099.23
651.67	39708.07
651.86	40344.98
652.06	39386.54
652.25	40078.75
652.44	39828.90
652.64	39728.55
652.83	40248.73
653.02	39433.64
653.22	39839.14
653.41	39675.30
653.60	39376.30
653.80	39542.18
653.99	39998.88
654.18	39955.87
654.38	40072.60
654.57	39677.35
654.76	39802.27
654.96	39781.79
655.15	39832.99
655.34	39806.37
655.54	39427.49
655.73	39701.92
655.92	40095.13
656.12	40179.10
656.31	40017.31
656.50	39716.26
656.70	39560.61
656.89	39558.56
657.08	39945.63
657.28	39611.81
657.47	39697.83
657.66	39742.88
657.86	39910.82
658.05	39970.21
658.24	39964.06
658.43	39456.17
658.63	39685.54
658.82	39820.70
659.01	39888.29
659.21	39611.81
659.40	39652.77
659.59	39781.79
659.79	39507.37
659.98	39292.33
660.17	39716.26
660.36	39542.18
660.56	39683.49
660.75	39392.68
660.94	39763.36
661.14	39568.80
661.33	39595.43
661.52	39411.11
661.71	39785.89
661.91	39204.27
662.10	38993.32
662.29	39503.27
662.49	39472.55
662.68	39435.69
662.87	39550.37
663.06	39312.81
663.26	39390.63
663.45	39429.54
663.64	39523.75
663.83	39523.75
664.03	39550.37
664.22	39218.60
664.41	39361.96
664.60	38976.94
664.80	39277.99
664.99	39269.80
665.18	39611.81
665.37	39122.35
665.57	39171.50
665.76	39347.62
665.95	39566.76
666.14	39042.48
666.34	39290.28
666.53	39220.65
666.72	39349.67
666.91	39171.50
667.11	38690.23
667.30	39101.87
667.49	38997.42
667.68	39062.96
667.87	38991.28
668.07	39269.80
668.26	39210.41
668.45	39372.20
668.64	38792.62
668.84	38962.61
669.03	38876.59
669.22	39191.98
669.41	39292.33
669.60	38899.12
669.80	38833.58
669.99	38870.45
670.18	38579.64
670.37	39146.92
670.57	38899.12
670.76	38858.16
670.95	39464.36
671.14	38909.36
671.33	38811.06
671.53	39130.54
671.72	38786.48
671.91	38661.55
672.10	38522.29
672.29	38684.08
672.48	38553.01
672.68	38720.95
672.87	38409.65
673.06	38575.54
673.25	38419.89
673.44	38548.92
673.64	38522.29
673.83	38479.28
674.02	38297.02
674.21	38671.79
674.40	38753.71
674.59	38378.93
674.79	38577.59
674.98	38176.19
675.17	38634.93
675.36	38514.10
675.55	38254.01
675.74	38229.43
675.94	38460.85
676.13	38276.54
676.32	38591.92
676.51	38491.57
676.70	38282.68
676.89	38579.64
677.08	38589.88
677.28	38395.32
677.47	38292.92
677.66	38354.36
677.85	38114.75
678.04	38219.19
678.23	38380.98
678.42	38391.22
678.62	37914.05
678.81	38577.59
679.00	38270.39
679.19	38350.26
679.38	37979.58
679.57	37971.39
679.76	38297.02
679.96	38432.18
680.15	37944.76
680.34	38198.71
680.53	37830.08
680.72	38256.06
680.91	38368.69
681.10	37492.16
681.29	38438.33
681.48	37795.26
681.68	37922.24
681.87	37832.13
682.06	37912.00
682.25	37555.65
682.44	37754.30
682.63	37635.52
682.82	37322.18
683.01	37705.15
683.20	37299.65
683.39	37594.56
683.59	37168.58
683.78	37561.79
683.97	37508.55
684.16	37336.52
684.35	37531.08
684.54	37623.23
684.73	37219.78
684.92	37377.48
685.11	37146.06
685.30	37162.44
685.49	37453.25
685.69	37330.37
685.88	37434.82
686.07	37238.22
686.26	37107.15
686.45	37014.99
686.64	37086.67
686.83	37115.34
687.02	37150.15
687.21	37344.71
687.40	36965.84
687.59	36773.33
687.78	37033.42
687.97	37250.50
688.16	36890.06
688.35	37242.31
688.54	36787.66
688.74	36871.63
688.93	36754.90
689.12	36558.29
689.31	36718.03
689.50	36767.18
689.69	36165.08
689.88	36445.65
690.07	36521.43
690.26	36439.51
690.45	37035.47
690.64	36527.57
690.83	36664.78
691.02	36425.17
691.21	36578.77
691.40	36214.23
691.59	36099.55
691.78	36781.52
691.97	36265.43
692.16	36390.36
692.35	36357.59
692.54	36210.14
692.73	36199.90
692.92	36017.63
693.11	36087.26
693.30	36097.50
693.49	36103.64
693.68	35534.31
693.87	36165.08
694.06	36390.36
694.25	36160.98
694.44	35747.29
694.63	36103.64
694.82	35849.69
695.01	35911.13
695.20	35948.00
695.39	35544.55
695.58	36001.24
695.77	35536.35
695.96	35438.05
696.15	35876.32
696.34	35139.05
696.53	35872.22
696.72	35460.58
696.91	35513.83
697.10	35608.03
697.29	35225.06
697.48	35618.27
697.67	35378.66
697.86	35112.42
698.05	35227.11
698.24	35393.00
698.43	34823.66
698.62	35448.29
698.81	34987.50
699.00	35366.37
699.19	35116.52
699.38	34969.07
699.57	34610.67
699.76	35368.42
699.95	35141.10
700.14	34725.36
700.32	35261.93
700.51	34629.10
700.70	34909.68
700.89	35259.88
701.08	34889.20
701.27	35040.75
701.46	34967.02
701.65	34471.41
701.84	34983.40
702.03	34903.53
702.22	34690.54
702.41	34561.52
702.60	34960.87
702.79	34776.56
702.98	34235.89
703.17	34582.00
703.35	34403.83
703.54	34358.77
703.73	34610.67
703.92	34639.34
704.11	34532.85
704.30	34182.65
704.49	34289.14
704.68	34190.84
704.87	33949.18
705.06	34174.45
705.25	34252.28
705.43	34147.83
705.62	34201.08
705.81	33848.83
706.00	34000.38
706.19	33846.78
706.38	33607.17
706.57	33914.36
706.76	33785.34
706.95	33758.72
707.14	33801.72
707.32	33889.79
707.51	33687.04
707.70	33777.15
707.89	33912.31
708.08	33728.00
708.27	33832.44
708.46	33601.02
708.65	33603.07
708.84	33809.92
709.02	33736.19
709.21	33672.70
709.40	33185.29
709.59	33486.34
709.78	33351.17
709.97	33476.10
710.16	33314.31
710.34	33420.80
710.53	33566.21
710.72	33250.82
710.91	33302.02
711.10	33252.87
711.29	33390.08
711.48	33295.88
711.66	33111.56
711.85	32871.95
712.04	33009.16
712.23	33199.62
712.42	33179.14
712.61	32996.87
712.80	32701.96
712.98	32826.89
713.17	32566.80
713.36	32663.05
713.55	32802.32
713.74	32671.25
713.93	32495.12
714.11	32503.31
714.30	32546.32
714.49	32263.70
714.68	32888.33
714.87	32720.40
715.06	32427.54
715.24	32695.82
715.43	32304.66
715.62	32130.58
715.81	32095.77
716.00	32382.48
716.18	32370.19
716.37	32075.29
716.56	32142.87
716.75	32368.15
716.94	32019.99
717.12	32183.83
717.31	32196.12
717.50	31999.51
717.69	32089.62
717.88	31997.46
718.06	31958.55
718.25	32189.97
718.44	31446.56
718.63	31430.18
718.82	31804.95
719.00	31239.72
719.19	31229.48
719.38	31548.96
719.57	31657.50
719.76	31536.67
719.94	31129.12
720.13	31165.99
720.32	31256.10
720.51	31645.21
720.69	31006.25
720.88	31139.36
721.07	31051.30
721.26	30819.88
721.44	31018.53
721.63	30760.49
721.82	30762.54
722.01	30969.38
722.20	31090.21
722.38	30723.63
722.57	30492.21
722.76	30660.14
722.95	30821.93
723.13	30606.89
723.32	30283.31
723.51	30551.60
723.70	30277.17
723.88	30283.31
724.07	30236.21
724.26	30486.06
724.44	30191.16
724.63	30051.89
724.82	30125.62
725.01	30080.56
725.19	30287.41
725.38	30015.03
725.57	30129.72
725.76	30236.21
725.94	29912.63
726.13	29867.58
726.32	29705.79
726.51	29998.65
726.69	30070.33
726.88	30004.79
727.07	30193.20
727.25	29822.52
727.44	29838.90
727.63	29402.69
727.82	29648.44
728.00	29969.97
728.19	29769.27
728.38	30047.80
728.56	29189.70
728.75	29734.46
728.94	29847.10
729.12	29627.96
729.31	29212.23
729.50	29777.47
729.69	29814.33
729.87	29591.10
730.06	29617.72
730.25	29517.37
730.43	29613.63
730.62	29238.85
730.81	29414.98
730.99	29681.21
731.18	29363.78
731.37	29591.10
731.55	29326.91
731.74	29734.46
731.93	29531.71
732.11	29417.02
732.30	29652.54
732.49	29410.88
732.67	29486.65
732.86	29152.84
733.05	29068.87
733.23	29318.72
733.42	29001.29
733.61	28941.89
733.79	28902.98
733.98	29120.07
734.17	29324.86
734.35	29062.72
734.54	29048.39
734.73	29036.10
734.91	29091.40
735.10	28653.13
735.29	29132.36
735.47	28673.61
735.66	28819.02
735.84	28632.65
736.03	28782.15
736.22	29091.40
736.40	28747.34
736.59	28827.21
736.78	28902.98
736.96	28726.86
737.15	28917.32
737.33	28606.03
737.52	28374.61
737.71	28710.47
737.89	28544.59
738.08	28442.19
738.27	28626.51
738.45	28933.70
738.64	28311.12
738.82	28468.81
739.01	28343.89
739.20	28460.62
739.38	28163.67
739.57	28221.01
739.75	28616.27
739.94	28001.88
740.13	28282.45
740.31	28278.35
740.50	28491.34
740.68	28474.96
740.87	27858.52
741.06	27782.74
741.24	28073.56
741.43	27893.33
741.61	27971.16
741.80	28180.05
741.99	27743.83
742.17	27977.30
742.36	27790.94
742.54	27891.29
742.73	27883.09
742.91	27940.44
743.10	27715.16
743.29	27790.94
743.47	27827.80
743.66	27653.72
743.84	27766.36
744.03	27772.50
744.21	27557.47
744.40	27471.45
744.59	27973.21
744.77	27389.53
744.96	27723.35
745.14	27608.67
745.33	27496.03
745.51	27131.49
745.70	27297.38
745.88	27076.19
746.07	27442.78
746.26	27131.49
746.44	27389.53
746.63	27186.79
746.81	27485.79
747.00	27190.88
747.18	27156.07
747.37	27192.93
747.55	27086.43
747.74	27248.22
747.92	27090.53
748.11	26771.05
748.29	26922.60
748.48	26836.58
748.66	26863.21
748.85	26861.16
749.03	27137.63
749.22	26830.44
749.41	26754.66
749.59	26584.68
749.78	26685.03
749.96	26590.83
750.15	26791.53
750.33	26818.15
750.52	26668.65
750.70	26517.10
750.89	26373.74
751.07	26347.12
751.26	26725.99
751.44	26359.41
751.63	26267.25
751.81	26504.81
752.00	26488.43
752.18	26783.34
752.37	26365.55
752.55	26003.06
752.74	25960.05
752.92	26326.64
753.10	26412.65
753.29	26347.12
753.47	26023.54
753.66	25861.75
753.84	26164.85
754.03	26201.71
754.21	26050.16
754.40	25927.28
754.58	26021.49
754.77	26048.11
754.95	26095.22
755.14	25769.59
755.32	25783.93
755.51	25695.86
755.69	25833.08
755.88	25962.10
756.06	25972.34
756.24	25958.00
756.43	25855.61
756.61	25896.56
756.80	25642.62
756.98	25458.30
757.17	25745.02
757.35	25605.75
757.54	25458.30
757.72	25507.45
757.90	25615.99
758.09	25489.02
758.27	25398.91
758.46	25798.26
758.64	25200.26
758.83	25656.95
759.01	25568.89
759.19	25474.68
759.38	25572.99
759.56	25333.37
759.75	25595.51
759.93	25265.79
760.12	25120.38
760.30	25073.28
760.48	25282.17
760.67	25136.77
760.85	25081.47
761.04	24970.88
761.22	25282.17
761.40	25114.24
761.59	25028.23
761.77	24782.47
761.96	24845.96
762.14	25153.15
762.32	24684.17
762.51	24876.68
762.69	24729.22
762.88	25001.60
763.06	24624.78
763.24	24884.87
763.43	24886.92
763.61	24911.49
763.80	24749.70
763.98	24673.93
764.16	24557.19
764.35	24487.56
764.53	24594.06
764.72	24549.00
764.90	24413.84
765.08	24741.51
765.27	24465.03
765.45	24168.08
765.63	24247.95
765.82	24551.05
766.00	24116.88
766.18	24508.04
766.37	24680.07
766.55	24118.93
766.74	24485.51
766.92	24108.69
767.10	24221.33
767.29	24288.91
767.47	23998.10
767.65	24270.48
767.84	23907.99
768.02	24282.77
768.20	24043.15
768.39	24190.61
768.57	24174.22
768.75	24135.31
768.94	24116.88
769.12	24503.95
769.30	23842.45
769.49	23703.19
769.67	23819.92
769.85	23482.01
770.04	23619.22
770.22	23903.89
770.40	23641.75
770.59	23742.10
770.77	23828.12
770.95	23576.22
771.14	23547.54
771.32	23516.83
771.50	23375.52
771.69	23314.08
771.87	23508.63
772.05	23391.90
772.24	23275.16
772.42	22941.35
772.60	23412.38
772.78	23150.24
772.97	22996.64
773.15	23185.05
773.33	23260.83
773.52	23336.60
773.70	22896.29
773.88	23092.90
774.07	23109.28
774.25	23180.96
774.43	23045.79
774.61	23168.67
774.80	23207.58
774.98	23316.12
775.16	23033.50
775.34	23080.61
775.53	23096.99
775.71	23289.50
775.89	22994.59
776.08	23281.31
776.26	23164.57
776.44	23101.09
776.62	23094.94
776.81	22847.14
776.99	22924.96
777.17	23152.29
777.35	23131.81
777.54	23426.71
777.72	22996.64
777.90	23166.62
778.08	23238.30
778.27	23178.91
778.45	23461.53
778.63	23279.26
778.81	22888.10
779.00	23389.85
779.18	23305.88
779.36	23140.00
779.54	22957.73
779.73	22949.54
779.91	23121.57
780.09	23199.39
780.27	23637.66
780.46	23303.84
780.64	23299.74
780.82	23371.42
781.00	23004.83
781.19	23013.02
781.37	23146.14
781.55	23201.44
781.73	23293.60
781.91	23144.09
782.10	23211.68
782.28	23504.54
782.46	23295.64
782.64	23688.85
782.82	23359.13
783.01	23275.16
783.19	23525.02
783.37	23301.79
783.55	23248.54
783.74	23367.32
783.92	23131.81
784.10	23334.56
784.28	23266.97
784.46	23215.77
784.64	22998.69
784.83	23058.08
785.01	23406.23
785.19	23164.57
785.37	23418.52
785.55	23137.95
785.74	22937.25
785.92	22965.92
786.10	23469.72
786.28	22986.40
786.46	22888.10
786.64	22941.35
786.83	22976.16
787.01	22939.30
787.19	22984.35
787.37	22949.54
787.55	22693.54
787.74	22601.38
787.92	22920.87
788.10	22978.21
788.28	22548.14
788.46	22949.54
788.64	22695.59
788.82	22814.37
789.01	22677.16
789.19	22410.92
789.37	22402.73
789.55	22607.53
789.73	22464.17
789.91	22421.16
790.09	22304.43
790.28	22384.30
790.46	22517.42
790.64	22277.80
790.82	22277.80
791.00	22240.94
791.18	22288.04
791.36	22070.96
791.55	21986.99
791.73	22005.42
791.91	22286.00
792.09	22013.62
792.27	22077.10
792.45	22210.22
792.63	22009.52
792.81	21878.45
793.00	21796.53
793.18	21796.53
793.36	21671.61
793.54	21634.74
793.72	21821.11
793.90	21601.97
794.08	21530.30
794.26	21694.13
794.44	21345.98
794.62	21487.29
794.81	21606.07
794.99	21417.66
795.17	21305.02
795.35	21450.42
795.53	21196.48
795.71	21376.70
795.89	20965.06
796.07	21055.17
796.25	20926.14
796.43	21032.64
796.61	21089.98
796.80	21100.22
796.98	20854.47
797.16	20704.96
797.34	20913.86
797.52	20752.07
797.70	21008.06
797.88	20672.20
798.06	20688.58
798.24	20664.00
798.42	20618.95
798.60	20553.41
798.78	20094.67
798.96	20297.42
799.14	20416.20
799.32	20344.52
799.51	20190.92
799.69	20244.17
799.87	20211.40
800.05	20057.81
800.23	20149.96
800.41	19973.84
800.59	19859.15
800.77	20066.00
800.95	19732.18
801.13	19979.98
801.31	19824.34
801.49	19799.76
801.67	19865.30
801.85	19896.02
802.03	19693.27
802.21	19660.50
802.39	19408.60
802.57	19658.45
802.75	19648.21
802.93	19355.35
803.11	19386.07
803.29	19148.51
803.47	19472.09
803.65	19320.54
803.83	19226.33
804.01	19082.97
804.19	19365.59
804.37	18810.59
804.55	19089.12
804.73	19195.61
804.91	18958.05
805.09	19005.15
805.27	18962.14
805.45	18931.42
805.63	19193.56
805.81	18919.14
805.99	18824.93
806.17	18962.14
806.35	18638.56
806.53	18530.02
806.71	18599.65
806.89	18548.45
807.07	18724.58
807.25	18546.40
807.43	18611.94
807.61	18650.85
807.79	18134.76
807.97	18132.72
808.15	18231.02
808.33	18427.62
808.51	18312.94
808.69	18337.51
808.87	17895.15
809.05	18001.65
809.23	18009.84
809.41	18032.36
809.59	17841.90
809.77	18181.87
809.95	17972.97
810.13	17848.05
810.31	17960.69
810.49	17895.15
810.67	17688.31
810.84	17968.88
811.02	17497.84
811.20	17383.16
811.38	17430.26
811.56	17522.42
811.74	17577.72
811.92	17448.69
812.10	17547.00
812.28	17514.23
812.46	17319.67
812.64	17526.52
812.82	17245.94
813.00	17239.80
813.18	17209.08
813.36	17180.41
813.53	17153.79
813.71	17071.87
813.89	17233.66
814.07	17239.80
814.25	17393.40
814.43	16875.26
814.61	16842.50
814.79	16891.65
814.97	16838.40
815.15	17200.89
815.33	16633.60
815.50	16613.12
815.68	16559.88
815.86	16652.03
816.04	16568.07
816.22	16467.72
816.40	16684.80
816.58	16531.20
816.76	16350.98
816.94	16547.59
817.11	16416.52
817.29	16596.74
817.47	16496.39
817.65	16211.72
817.83	16365.32
818.01	16353.03
818.19	16228.10
818.37	16164.62
818.54	16088.84
818.72	16129.80
818.90	16242.44
819.08	16240.39
819.26	15779.60
819.44	16140.04
819.62	16031.50
819.80	15890.19
819.97	15957.77
820.15	15773.46
820.33	15900.43
820.51	15736.59
820.69	15759.12
820.87	15884.05
821.05	15857.42
821.22	15603.47
821.40	15621.91
821.58	15742.74
821.76	15705.87
821.94	15638.29
822.12	15697.68
822.29	15636.24
822.47	15642.39
822.65	16047.88
822.83	15468.31
823.01	15456.02
823.19	15619.86
823.36	15382.29
823.54	15380.25
823.72	15363.86
823.90	15224.60
824.08	14982.94
824.25	15228.70
824.43	15118.11
824.61	15294.23
824.79	15359.77
824.97	15044.38
825.15	15114.01
825.32	15142.68
825.50	15288.09
825.68	15204.12
825.86	15200.02
826.04	15152.92
826.21	15132.44
826.39	15023.90
826.57	14966.56
826.75	14991.13
826.93	14919.45
827.10	14843.68
827.28	15032.09
827.46	14866.21
827.64	14608.16
827.81	14720.80
827.99	14772.00
828.17	14954.27
828.35	14694.18
828.53	14628.64
828.70	14520.10
828.88	14688.03
829.06	14518.05
829.24	14812.96
829.41	14518.05
829.59	14599.97
829.77	14327.59
829.95	14513.95
830.12	14548.77
830.30	14534.43
830.48	14640.93
830.66	14350.12
830.84	14489.38
831.01	14364.45
831.19	14356.26
831.37	14475.04
831.55	14161.70
831.72	14196.52
831.90	14081.83
832.08	14096.17
832.25	14077.74
832.43	14253.86
832.61	14034.73
832.79	13997.87
832.96	13850.41
833.14	14100.26
833.32	14153.51
833.50	13987.63
833.67	13907.76
833.85	14090.02
834.03	13967.15
834.20	14085.93
834.38	14135.08
834.56	14270.25
834.74	13782.83
834.91	13961.00
835.09	13811.50
835.27	13563.70
835.44	13846.32
835.62	13637.42
835.80	13657.90
835.98	13647.66
836.15	13647.66
836.33	13801.26
836.51	13913.90
836.68	13543.22
836.86	13606.70
837.04	13729.58
837.21	13516.59
837.39	13483.83
837.57	13440.82
837.75	13633.33
837.92	13457.20
838.10	13414.20
838.28	13399.86
838.45	13397.81
838.63	13453.11
838.81	13418.29
838.98	13502.26
839.16	13252.41
839.34	13276.98
839.51	13403.96
839.69	13252.41
839.87	13403.96
840.04	13375.28
840.22	13281.08
840.40	13207.35
840.57	13000.51
840.75	13098.81
840.93	13100.86
841.10	13014.84
841.28	13324.08
841.46	13276.98
841.63	13322.04
841.81	13174.58
841.98	13125.43
842.16	13201.21
842.34	13047.61
842.51	12988.22
842.69	13004.60
842.87	12937.02
843.04	12994.36
843.22	12914.49
843.40	13016.89
843.57	13117.24
843.75	12828.48
843.92	13090.62
844.10	12894.01
844.28	13006.65
844.45	12904.25
844.63	12808.00
844.81	12793.66
844.98	12687.17
845.16	12810.04
845.33	12656.45
845.51	12762.94
845.69	12513.09
845.86	12547.90
846.04	12613.44
846.21	12480.32
846.39	12363.59
846.57	12437.31
846.74	12560.19
846.92	12439.36
847.09	12353.35
847.27	12289.86
847.45	12414.79
847.62	12306.24
847.80	12347.20
847.97	12554.05
848.15	12312.39
848.32	12377.92
848.50	12521.28
848.68	12459.84
848.85	12185.41
849.03	12228.42
849.20	12289.86
849.38	12322.63
849.56	12429.12
849.73	11956.04
849.91	12040.01
850.08	12363.59
850.26	12111.69
850.43	12005.19
850.61	12035.91
850.78	12156.74
850.96	12279.62
851.14	12136.26
851.31	12138.31
851.49	12021.58
851.66	12152.65
851.84	12080.97
852.01	12074.82
852.19	11919.18
852.36	12042.06
852.54	11863.88
852.71	11824.97
852.89	11644.75
853.07	11958.09
853.24	11947.85
853.42	11849.55
853.59	11921.23
853.77	11767.63
853.94	11865.93
854.12	11575.12
854.29	11528.02
854.47	11589.46
854.64	11521.87
854.82	11767.63
854.99	11788.11
855.17	11677.52
855.34	11509.58
855.52	11665.23
855.69	11736.91
855.87	11396.95
856.04	11577.17
856.22	11353.94
856.39	11267.92
856.57	11376.47
856.74	11573.07
856.92	11573.07
857.09	11517.78
857.27	11552.59
857.44	11743.05
857.62	11390.80
857.79	11321.17
857.97	11353.94
858.14	11290.45
858.32	11149.14
858.49	11136.85
858.67	11358.03
858.84	11200.34
859.02	11171.67
859.19	11173.72
859.37	11028.31
859.54	11083.61
859.72	11241.30
859.89	11224.92
860.06	11038.55
860.24	11204.44
860.41	11018.07
860.59	11155.29
860.76	10960.73
860.94	10876.76
861.11	11216.72
861.29	10948.44
861.46	10985.30
861.64	10874.71
861.81	10893.15
861.98	10854.23
862.16	10766.17
862.33	10807.13
862.51	10837.85
862.68	10809.18
862.86	10803.04
863.03	10737.50
863.21	10671.97
863.38	10717.02
863.55	10655.58
863.73	10665.82
863.90	10655.58
864.08	10592.09
864.25	10522.46
864.43	10659.68
864.60	10708.83
864.77	10438.50
864.95	10532.70
865.12	10499.94
865.30	10536.80
865.47	10516.32
865.64	10536.80
865.82	10526.56
865.99	10575.71
866.17	10487.65
866.34	10456.93
866.51	10291.04
866.69	10266.47
866.86	10364.77
867.04	10426.21
867.21	10303.33
867.38	10200.93
867.56	10254.18
867.73	10239.84
867.91	10184.55
868.08	10266.47
868.25	10237.80
868.43	10278.76
868.60	10194.79
868.78	10137.45
868.95	10104.68
869.12	10061.67
869.30	10112.87
869.47	9959.27
869.64	9949.03
869.82	10061.67
869.99	9848.68
870.16	10106.73
870.34	9838.44
870.51	10217.32
870.69	10045.29
870.86	9803.63
871.03	9865.07
871.21	9983.85
871.38	9949.03
871.55	9772.91
871.73	9820.01
871.90	9592.69
872.07	9756.52
872.25	9580.40
872.42	9787.24
872.59	9766.76
872.77	9668.46
872.94	9803.63
873.11	9523.05
873.29	9521.01
873.46	9680.75
873.63	9535.34
873.81	9621.36
873.98	9527.15
874.15	9574.25
874.33	9351.03
874.50	9453.42
874.67	9490.29
874.85	9332.59
875.02	9336.69
875.19	9244.53
875.37	9230.20
875.54	9449.33
875.71	9502.58
875.88	9152.37
876.06	9318.26
876.23	9334.64
876.40	9176.95
876.58	9183.09
876.75	9193.33
876.92	9213.81
877.10	9330.55
877.27	9160.56
877.44	9013.11
877.61	9187.19
877.79	9076.60
877.96	8945.53
878.13	8982.39
878.31	9105.27
878.48	9080.69
878.65	8935.29
878.82	8912.76
879.00	8908.66
879.17	9017.21
879.34	9090.93
879.51	8787.83
879.69	8718.20
879.86	8755.07
880.03	8841.08
880.21	8970.10
880.38	8890.23
880.55	8865.66
880.72	8800.12
880.90	8877.94
881.07	8777.59
881.24	8763.26
881.41	8906.62
881.59	8677.24
881.76	8658.81
881.93	8707.96
882.10	8740.73
882.28	8523.65
882.45	8660.86
882.62	8712.06
882.79	8667.00
882.96	8476.54
883.14	8695.68
883.31	8519.55
883.48	8685.44
883.65	8523.65
883.83	8789.88
884.00	8621.95
884.17	8458.11
884.34	8521.60
884.51	8587.13
884.69	8470.40
884.86	8400.77
885.03	8615.80
885.20	8413.06
885.38	8529.79
885.55	8411.01
885.72	8427.39
885.89	8464.25
886.06	8169.35
886.24	8390.53
886.41	8357.76
886.58	8564.61
886.75	8449.92
886.92	8183.68
887.10	8396.67
887.27	8302.47
887.44	8478.59
887.61	8267.65
887.78	8484.73
887.95	8404.86
888.13	8126.34
888.30	8376.19
888.47	8060.80
888.64	8351.62
888.81	8107.91
888.99	8259.46
889.16	8155.01
889.33	8243.07
889.50	7997.32
889.67	8163.20
889.84	8048.52
890.01	8114.05
890.19	8208.26
890.36	8177.54
890.53	8314.75
890.70	8161.16
890.87	8169.35
891.04	7962.50
891.22	8150.92
891.39	8128.39
891.56	7860.10
891.73	7923.59
891.90	7985.03
892.07	7962.50
892.24	7931.78
892.42	7933.83
892.59	8140.68
892.76	8007.56
892.93	7876.49
893.10	7956.36
893.27	7948.17
893.44	7866.25
893.61	7718.79
893.79	7853.96
893.96	7745.42
894.13	7858.06
894.30	8028.04
894.47	7860.10
894.64	7735.18
894.81	7735.18
894.98	7796.62
895.15	7790.47
895.33	7673.74
895.50	7753.61
895.67	7884.68
895.84	7710.60
896.01	7722.89
896.18	7591.82
896.35	7784.33
896.52	7643.02
896.69	7792.52
896.86	7686.03
897.04	7679.88
897.21	7552.91
897.38	7667.60
897.55	7661.45
897.72	7806.86
897.89	7817.10
898.06	7548.81
898.23	7577.48
898.40	7618.44
898.57	7489.42
898.74	7741.32
898.91	7470.99
899.08	7630.73
899.26	7640.97
899.43	7710.60
899.60	7661.45
899.77	7661.45
899.94	7571.34
900.11	7550.86
900.28	7683.98
900.45	7649.16
900.62	7688.07
900.79	7493.52
900.96	7622.54
901.13	7481.23
901.30	7417.74
901.47	7499.66
901.64	7518.09
901.81	7489.42
901.98	7307.15
902.15	7364.50
902.32	7374.74
902.49	7407.50
902.66	7473.04
902.83	7616.40
903.01	7456.65
903.18	7538.57
903.35	7413.65
903.52	7389.07
903.69	7464.85
903.86	7501.71
904.03	7407.50
904.20	7432.08
904.37	7444.37
904.54	7423.89
904.71	7405.46
904.88	7382.93
905.05	7491.47
905.22	7548.81
905.39	7464.85
905.56	7374.74
905.73	7380.88
905.90	7483.28
906.07	7600.01
906.24	7296.91
906.41	7479.18
906.58	7462.80
906.75	7399.31
906.92	7176.08
907.09	7395.22
907.26	7395.22
907.43	7350.16
907.60	7200.66
907.77	7401.36
907.93	7417.74
908.10	7557.00
908.27	7321.49
908.44	7323.54
908.61	7202.71
908.78	7184.27
908.95	7233.43
909.12	7348.11
909.29	7225.23
909.46	7186.32
909.63	7155.60
909.80	7368.59
909.97	7335.82
910.14	7362.45
910.31	7176.08
910.48	7141.27
910.65	7317.39
910.82	7329.68
910.99	7116.69
911.16	7100.31
911.33	7149.46
911.50	7110.55
911.66	7206.80
911.83	7110.55
912.00	6985.62
912.17	7137.17
912.34	7149.46
912.51	7042.96
912.68	6862.74
912.85	6950.81
913.02	7057.30
913.19	7061.40
913.36	7034.77
913.53	7016.34
913.70	7049.11
913.86	6946.71
914.03	6959.00
914.20	6840.22
914.37	6981.53
914.54	7065.49
914.71	7028.63
914.88	7006.10
915.05	6807.45
915.22	6877.08
915.39	6991.77
915.55	6936.47
915.72	6819.74
915.89	6803.35
916.06	6709.15
916.23	6762.39
916.40	6682.52
916.57	6690.71
916.74	6752.15
916.91	6795.16
917.07	6590.36
917.24	6637.47
917.41	6623.13
917.58	6678.43
917.75	6670.23
917.92	6700.95
918.09	6803.35
918.26	6533.02
918.42	6473.63
918.59	6698.91
918.76	6358.94
918.93	6426.53
919.10	6496.16
919.27	6459.29
919.44	6401.95
919.60	6436.77
919.77	6391.71
919.94	6483.87
920.11	6420.38
920.28	6502.30
920.45	6338.46
920.61	6383.52
920.78	6354.85
920.95	6205.35
921.12	6156.19
921.29	6266.78
921.46	6213.54
921.62	6047.65
921.79	6178.72
921.96	6201.25
922.13	6152.10
922.30	5980.07
922.47	6072.23
922.63	6131.62
922.80	5930.92
922.97	5959.59
923.14	5810.09
923.31	5957.54
923.47	5914.53
923.64	6174.63
923.81	5871.53
923.98	5945.25
924.15	5920.68
924.32	5840.81
924.48	5812.14
924.65	5734.31
924.82	5818.28
924.99	5832.62
925.15	5681.07
925.32	5740.46
925.49	5746.60
925.66	5590.95
925.83	5558.19
925.99	5711.78
926.16	5719.98
926.33	5697.45
926.50	5699.50
926.67	5738.41
926.83	5674.92
927.00	5504.94
927.17	5506.99
927.34	5445.55
927.50	5457.84
927.67	5531.56
927.84	5412.78
928.01	5453.74
928.17	5314.48
928.34	5545.90
928.51	5470.12
928.68	5328.81
928.84	5343.15
929.01	5347.25
929.18	5406.64
929.35	5089.20
929.51	5173.17
929.68	5083.06
929.85	5193.65
930.02	5197.74
930.18	5255.09
930.35	5191.60
930.52	5013.43
930.69	5207.98
930.85	5048.24
931.02	5005.24
931.19	4997.04
931.36	4995.00
931.52	4919.22
931.69	5124.02
931.86	4960.18
932.02	5128.11
932.19	4851.64
932.36	4808.63
932.53	4810.68
932.69	4743.10
932.86	4884.41
933.03	4808.63
933.19	4749.24
933.36	4745.14
933.53	4743.10
933.70	4724.66
933.86	4734.90
934.03	4710.33
934.20	4669.37
934.36	4634.55
934.53	4591.55
934.70	4556.73
934.86	4564.92
935.03	4401.08
935.20	4483.00
935.36	4437.95
935.53	4378.56
935.70	4519.87
935.86	4329.41
936.03	4351.93
936.20	4300.73
936.36	4224.96
936.53	4212.67
936.70	4200.38
936.86	4286.40
937.03	4239.30
937.20	3942.34
937.36	4188.10
937.53	4134.85
937.70	3913.67
937.86	4014.02
938.03	3964.87
938.20	4042.69
938.36	3735.50
938.53	3788.74
938.70	3827.65
938.86	3872.71
939.03	3844.04
939.20	3629.00
939.36	3735.50
939.53	3721.16
939.70	3702.73
939.86	3547.08
940.03	3633.10
940.19	3504.07
940.36	3614.66
940.53	3538.89
940.69	3547.08
940.86	3444.68
941.03	3381.20
941.19	3389.39
941.36	3323.85
941.52	3426.25
941.69	3246.03
941.86	3297.23
942.02	3348.43
942.19	3192.78
942.35	3239.89
942.52	3227.60
942.69	3258.32
942.85	3139.54
943.02	3092.43
943.18	3203.02
943.35	3006.42
943.52	3137.49
943.68	3014.61
943.85	3102.67
944.01	3026.90
944.18	3164.11
944.35	2928.60
944.51	2975.70
944.68	2873.30
944.84	2994.13
945.01	2938.84
945.17	2969.55
945.34	2959.31
945.51	2930.64
945.67	2922.45
945.84	2916.31
946.00	2979.79
946.17	2850.77
946.33	2830.29
946.50	2875.35
946.67	2809.81
946.83	2957.27
947.00	2883.54
947.16	2797.53
947.33	2863.06
947.49	2881.49
947.66	2789.33
947.82	2725.85
947.99	2766.81
948.16	2807.77
948.32	2787.29
948.49	2801.62
948.65	2834.39
948.82	2758.61
948.98	2789.33
949.15	2756.57
949.31	2787.29
949.48	2758.61
949.64	2789.33
949.81	2717.65
949.97	2793.43
950.14	2856.92
950.30	2711.51
950.47	2740.18
950.63	2768.85
950.80	2740.18
950.96	2777.05
951.13	2775.00
951.30	2662.36
951.46	2795.48
951.63	2795.48
951.79	2775.00
951.96	2793.43
952.12	2797.53
952.29	2709.46
952.45	2717.65
952.62	2723.80
952.78	2666.46
952.94	2813.91
953.11	2740.18
953.27	2670.55
953.44	2766.81
953.60	2742.23
953.77	2717.65
953.93	2699.22
954.10	2750.42
954.26	2711.51
954.43	2674.65
954.59	2754.52
954.76	2758.61
954.92	2650.07
955.09	2654.17
955.25	2654.17
955.42	2680.79
955.58	2725.85
955.75	2652.12
955.91	2617.30
956.07	2697.17
956.24	2725.85
956.40	2664.41
956.57	2670.55
956.73	2668.50
956.90	2633.69
957.06	2740.18
957.23	2658.26
957.39	2664.41
957.56	2637.78
957.72	2678.74
957.88	2715.61
958.05	2656.22
958.21	2729.94
958.38	2688.98
958.54	2625.50
958.71	2676.70
958.87	2715.61
959.03	2633.69
959.20	2656.22
959.36	2656.22
959.53	2494.43
959.69	2578.39
959.85	2736.09
960.02	2584.54
960.18	2637.78
960.35	2574.30
960.51	2613.21
960.68	2527.19
960.84	2576.34
961.00	2566.10
961.17	2602.97
961.33	2539.48
961.50	2598.87
961.66	2688.98
961.82	2582.49
961.99	2650.07
962.15	2670.55
962.31	2588.63
962.48	2566.10
962.64	2623.45
962.81	2555.86
962.97	2590.68
963.13	2570.20
963.30	2582.49
963.46	2557.91
963.62	2582.49
963.79	2553.82
963.95	2576.34
964.12	2592.73
964.28	2557.91
964.44	2535.39
964.61	2455.51
964.77	2568.15
964.93	2584.54
965.10	2465.75
965.26	2566.10
965.42	2508.76
965.59	2508.76
965.75	2469.85
965.92	2537.43
966.08	2498.52
966.24	2478.04
966.41	2508.76
966.57	2473.95
966.73	2541.53
966.90	2559.96
967.06	2496.47
967.22	2439.13
967.39	2535.39
967.55	2523.10
967.71	2451.42
967.88	2502.62
968.04	2463.71
968.20	2437.08
968.37	2473.95
968.53	2506.71
968.69	2412.51
968.85	2416.60
969.02	2463.71
969.18	2492.38
969.34	2463.71
969.51	2396.12
969.67	2557.91
969.83	2426.84
970.00	2482.14
970.16	2494.43
970.32	2404.32
970.48	2557.91
970.65	2392.03
970.81	2408.41
970.97	2422.75
971.14	2426.84
971.30	2465.75
971.46	2351.07
971.63	2416.60
971.79	2422.75
971.95	2406.36
972.11	2316.25
972.28	2426.84
972.44	2445.27
972.60	2463.71
972.76	2373.60
972.93	2398.17
973.09	2357.21
973.25	2441.18
973.42	2412.51
973.58	2404.32
973.74	2330.59
973.90	2402.27
974.07	2363.36
974.23	2367.45
974.39	2332.64
974.55	2426.84
974.72	2461.66
974.88	2318.30
975.04	2367.45
975.20	2367.45
975.37	2394.08
975.53	2279.39
975.69	2418.65
975.85	2338.78
976.01	2287.58
976.18	2379.74
976.34	2330.59
976.50	2332.64
976.66	2381.79
976.83	2336.73
976.99	2322.40
977.15	2359.26
977.31	2215.90
977.47	2455.51
977.64	2342.88
977.80	2377.69
977.96	2299.87
978.12	2299.87
978.29	2265.05
978.45	2308.06
978.61	2256.86
978.77	2334.68
978.93	2258.91
979.10	2275.29
979.26	2340.83
979.42	2281.44
979.58	2326.49
979.74	2197.47
979.91	2336.73
980.07	2299.87
980.23	2301.92
980.39	2322.40
980.55	2246.62
980.71	2277.34
980.88	2263.01
981.04	2326.49
981.20	2242.53
981.36	2385.88
981.52	2344.92
981.68	2260.96
981.85	2238.43
982.01	2195.42
982.17	2281.44
982.33	2287.58
982.49	2203.61
982.65	2314.20
982.82	2256.86
982.98	2222.05
983.14	2174.94
983.30	2316.25
983.46	2170.85
983.62	2260.96
983.79	2136.03
983.95	2150.37
984.11	2152.42
984.27	2170.85
984.43	2154.46
984.59	2193.37
984.75	2191.33
984.91	2138.08
985.08	2234.33
985.24	2166.75
985.40	2189.28
985.56	2291.68
985.72	2121.70
985.88	2228.19
986.04	2129.89
986.20	2115.55
986.37	2213.85
986.53	2152.42
986.69	2217.95
986.85	2144.22
987.01	2207.71
987.17	2164.70
987.33	2273.25
987.49	2172.89
987.65	2121.70
987.82	2185.18
987.98	2138.08
988.14	2144.22
988.30	2174.94
988.46	2119.65
988.62	2125.79
988.78	2144.22
988.94	2158.56
989.10	2093.02
989.26	2070.50
989.42	2109.41
989.59	2082.78
989.75	2031.58
989.91	2080.74
990.07	2045.92
990.23	2113.50
990.39	2121.70
990.55	2207.71
990.71	2166.75
990.87	2023.39
991.03	2117.60
991.19	2086.88
991.35	2086.88
991.51	2164.70
991.67	2099.17
991.83	2125.79
992.00	2074.59
992.16	2133.98
992.32	2144.22
992.48	2146.27
992.64	2072.54
992.80	2029.54
992.96	2162.66
993.12	2121.70
993.28	2078.69
993.44	2050.02
993.60	1994.72
993.76	2033.63
993.92	2041.82
994.08	2023.39
994.24	2070.50
994.40	2047.97
994.56	2060.26
994.72	2086.88
994.88	2017.25
995.04	2033.63
995.20	2002.91
995.36	2025.44
995.52	2066.40
995.68	2023.39
995.84	2054.11
996.00	2035.68
996.16	2058.21
996.32	1951.71
996.48	1984.48
996.64	2158.56
996.80	1974.24
996.96	2060.26
997.12	2021.35
997.28	2002.91
997.44	1974.24
997.60	2060.26
997.76	2078.69
997.92	2080.74
998.08	2015.20
998.24	2058.21
998.40	2060.26
998.56	2031.58
998.72	2033.63
998.88	2039.78
999.04	1959.91
999.20	1982.43
999.36	2007.01
999.52	2039.78
999.68	2019.30
999.84	1980.39
1000.00	1941.47
1000.16	1970.15
1000.32	1964.00
1000.48	2050.02
1000.64	1906.66
1000.80	2013.15
1000.95	1935.33
1001.11	2002.91
1001.27	1982.43
1001.43	1966.05
1001.59	2004.96
1001.75	1972.19
1001.91	1968.10
1002.07	1925.09
1002.23	1927.14
1002.39	1896.42
1002.55	1937.38
1002.71	1898.47
1002.87	1941.47
1003.03	1843.17
1003.19	1890.28
1003.34	1890.28
1003.50	1984.48
1003.66	1933.28
1003.82	1947.62
1003.98	1882.08
1004.14	1918.95
1004.30	1964.00
1004.46	1880.04
1004.62	1920.99
1004.78	1912.80
1004.94	1877.99
1005.09	1920.99
1005.25	1933.28
1005.41	1916.90
1005.57	1855.46
1005.73	1882.08
1005.89	1894.37
1006.05	1896.42
1006.21	1959.91
1006.37	1914.85
1006.52	1894.37
1006.68	1888.23
1006.84	1927.14
1007.00	1890.28
1007.16	1894.37
1007.32	1884.13
1007.48	1927.14
1007.64	1941.47
1007.79	1947.62
1007.95	1923.04
1008.11	1888.23
1008.27	1925.09
1008.43	1869.80
1008.59	1925.09
1008.75	1935.33
1008.91	1873.89
1009.06	1918.95
1009.22	1929.19
1009.38	1867.75
1009.54	1892.32
1009.70	1816.55
1009.86	1857.51
1010.01	1859.56
1010.17	1908.71
1010.33	1906.66
1010.49	1925.09
1010.65	1902.56
1010.81	1871.84
1010.96	1912.80
1011.12	1855.46
1011.28	1845.22
1011.44	1841.12
1011.60	1896.42
1011.76	1894.37
1011.91	1863.65
1012.07	1798.12
1012.23	1816.55
1012.39	1759.21
1012.55	1865.70
1012.71	1867.75
1012.86	1818.60
1013.02	1914.85
1013.18	1791.97
1013.34	1802.21
1013.50	1777.64
1013.65	1949.67
1013.81	1796.07
1013.97	1816.55
1014.13	1820.64
1014.29	1796.07
1014.44	1755.11
1014.60	1673.19
1014.76	1767.40
1014.92	1783.78
1015.07	1830.88
1015.23	1806.31
1015.39	1816.55
1015.55	1787.88
1015.71	1853.41
1015.86	1802.21
1016.02	1748.97
1016.18	1740.77
1016.34	1783.78
1016.49	1732.58
1016.65	1853.41
1016.81	1765.35
1016.97	1751.01
1017.12	1734.63
1017.28	1712.10
1017.44	1779.68
1017.60	1806.31
1017.75	1785.83
1017.91	1808.36
1018.07	1886.18
1018.23	1816.55
1018.38	1808.36
1018.54	1804.26
1018.70	1781.73
1018.86	1753.06
1019.01	1755.11
1019.17	1755.11
1019.33	1763.30
1019.49	1798.12
1019.64	1777.64
1019.80	1746.92
1019.96	1783.78
1020.12	1773.54
1020.27	1695.72
1020.43	1685.48
1020.59	1724.39
1020.74	1826.79
1020.90	1822.69
1021.06	1769.44
1021.22	1806.31
1021.37	1753.06
1021.53	1742.82
1021.69	1765.35
1021.84	1722.34
1022.00	1769.44
1022.16	1681.38
1022.31	1691.62
1022.47	1714.15
1022.63	1808.36
1022.79	1767.40
1022.94	1685.48
1023.10	1791.97
1023.26	1744.87
1023.41	1716.20
1023.57	1693.67
1023.73	1734.63
1023.88	1691.62
1024.04	1722.34
1024.20	1740.77
1024.35	1761.25
1024.51	1730.53
1024.67	1781.73
1024.82	1787.88
1024.98	1712.10
1025.14	1722.34
1025.29	1810.40
1025.45	1765.35
1025.61	1720.29
1025.76	1701.86
1025.92	1728.49
1026.08	1689.57
1026.23	1761.25
1026.39	1683.43
1026.55	1734.63
1026.70	1757.16
1026.86	1765.35
1027.02	1689.57
1027.17	1699.81
1027.33	1712.10
1027.48	1730.53
1027.64	1669.09
1027.80	1681.38
1027.95	1726.44
1028.11	1601.51
1028.27	1679.33
1028.42	1742.82
1028.58	1689.57
1028.73	1660.90
1028.89	1587.18
1029.05	1683.43
1029.20	1720.29
>>>>>End Processed Spectral Data<<<<<
